Data from oven-75C-5d_1e-4_Absorbance_08-44-49-666.txt Node
Date: Tue Aug 29 08:44:49 EDT 2023
User: UV-vis
Spectrometer: FLMS04918
Trigger mode: 0
Integration Time (sec): 1.000000E-1
Scans to average: 3
Electric dark correction enabled: true
Nonlinearity correction enabled: false
Boxcar width: 3
XAxis mode: Wavelengths
Number of Pixels in Spectrum: 2048
>>>>>Begin Spectral Data<<<<<
179.23	1.27963
179.611	1.2878
179.992	-0
180.373	2.37123
180.754	-0
181.134	-0
181.515	-0
181.896	-0
182.276	-0
182.657	-0.03094
183.038	-0.08341
183.418	0.01342
183.799	0.44559
184.179	0.26461
184.56	-0
184.94	-0
185.32	0.57702
185.701	0.0806
186.081	-0
186.461	0.91172
186.842	1.92664
187.222	1.94654
187.602	2.00964
187.982	2.0771
188.362	2.05364
188.742	2.09783
189.122	2.04728
189.502	2.04159
189.882	2.04154
190.262	2.0246
190.642	2.02619
191.022	2.07201
191.402	2.06449
191.781	2.09636
192.161	2.12879
192.541	2.14223
192.92	2.14492
193.3	2.14893
193.68	2.11572
194.059	2.10569
194.439	2.0866
194.818	2.04696
195.198	2.04414
195.577	2.06282
195.957	2.09898
196.336	2.0963
196.715	2.07884
197.094	2.08475
197.474	2.08435
197.853	2.0857
198.232	2.06069
198.611	2.00262
198.99	2.01364
199.369	2.00051
199.748	2.00796
200.127	2.02399
200.506	2.01901
200.885	2.03527
201.264	2.06337
201.643	2.06529
202.022	2.06983
202.401	2.06635
202.779	2.0534
203.158	2.04211
203.537	2.03916
203.915	2.00618
204.294	1.99139
204.673	2.00263
205.051	2.00363
205.43	2.03929
205.808	2.05319
206.187	2.05092
206.565	2.08583
206.943	2.10308
207.322	2.14598
207.7	2.1679
208.078	2.12558
208.456	2.13593
208.835	2.14559
209.213	2.13115
209.591	2.11973
209.969	2.06671
210.347	2.03974
210.725	2.07401
211.103	2.05947
211.481	2.05719
211.859	2.04996
212.237	2.05328
212.614	2.0581
212.992	2.07172
213.37	2.06487
213.748	2.05345
214.125	2.02413
214.503	2.02858
214.881	2.00916
215.258	2.01499
215.636	2.01959
216.013	2.02164
216.391	2.04778
216.768	2.07948
217.145	2.08971
217.523	2.12604
217.9	2.13308
218.277	2.11662
218.655	2.11635
219.032	2.1229
219.409	2.12775
219.786	2.11936
220.163	2.08973
220.54	2.11265
220.917	2.11273
221.294	2.11432
221.671	2.07563
222.048	2.05966
222.425	2.09972
222.802	2.09551
223.179	2.10328
223.556	2.13804
223.932	2.12282
224.309	2.15025
224.686	2.17941
225.062	2.15193
225.439	2.17046
225.815	2.13876
226.192	2.11934
226.568	2.15564
226.945	2.17196
227.321	2.14292
227.698	2.13714
228.074	2.15586
228.45	2.18009
228.827	2.159
229.203	2.10823
229.579	2.07745
229.955	2.09345
230.331	2.10483
230.707	2.08098
231.083	2.07544
231.46	2.09046
231.835	2.11756
232.211	2.15037
232.587	2.16318
232.963	2.14966
233.339	2.16187
233.715	2.18658
234.091	2.17152
234.466	2.15979
234.842	2.15955
235.218	2.13697
235.593	2.13015
235.969	2.09319
236.344	2.07836
236.72	2.07095
237.095	2.08772
237.471	2.09423
237.846	2.11923
238.222	2.10061
238.597	2.14068
238.972	2.12214
239.348	2.14287
239.723	2.13056
240.098	2.1023
240.473	2.07892
240.848	2.09017
241.223	2.09928
241.598	2.10738
241.973	2.12397
242.348	2.09144
242.723	2.11161
243.098	2.14193
243.473	2.16227
243.848	2.15664
244.223	2.16128
244.597	2.14805
244.972	2.17762
245.347	2.14493
245.721	2.1441
246.096	2.12856
246.47	2.13497
246.845	2.13172
247.219	2.12498
247.594	2.14451
247.968	2.14265
248.343	2.10911
248.717	2.12305
249.091	2.11264
249.466	2.10939
249.84	2.12539
250.214	2.09951
250.588	2.13469
250.962	2.13395
251.336	2.14762
251.71	2.13098
252.084	2.14531
252.458	2.1479
252.832	2.17438
253.206	2.20608
253.58	2.24312
253.954	2.21611
254.328	2.24836
254.702	2.23976
255.075	2.23455
255.449	2.22886
255.823	2.18632
256.196	2.17578
256.57	2.16728
256.943	2.15267
257.317	2.1523
257.69	2.16522
258.064	2.17843
258.437	2.17745
258.81	2.19372
259.184	2.24519
259.557	2.27895
259.93	2.2976
260.303	2.32029
260.677	2.33907
261.05	2.33822
261.423	2.34059
261.796	2.30298
262.169	2.28641
262.542	2.27545
262.915	2.21753
263.288	2.22031
263.661	2.22802
264.033	2.21062
264.406	2.20428
264.779	2.23543
265.152	2.25036
265.524	2.25063
265.897	2.22775
266.27	2.24624
266.642	2.27042
267.015	2.28267
267.387	2.26661
267.76	2.26708
268.132	2.27545
268.504	2.26754
268.877	2.24061
269.249	2.22864
269.621	2.21965
269.994	2.20832
270.366	2.20277
270.738	2.22922
271.11	2.23972
271.482	2.25181
271.854	2.26003
272.226	2.25591
272.598	2.26269
272.97	2.26459
273.342	2.26016
273.714	2.26555
274.086	2.2955
274.458	2.30562
274.829	2.30321
275.201	2.29982
275.573	2.32532
275.944	2.34669
276.316	2.33949
276.688	2.33396
277.059	2.33425
277.431	2.33244
277.802	2.36942
278.173	2.38959
278.545	2.37579
278.916	2.36546
279.287	2.34157
279.659	2.3369
280.03	2.3603
280.401	2.34163
280.772	2.33723
281.143	2.35156
281.515	2.38545
281.886	2.42099
282.257	2.47834
282.628	2.51891
282.998	2.55985
283.369	2.58232
283.74	2.58943
284.111	2.56861
284.482	2.53013
284.853	2.49326
285.223	2.44534
285.594	2.38536
285.965	2.32137
286.335	2.26851
286.706	2.2269
287.076	2.18402
287.447	2.13334
287.817	2.102
288.188	2.07828
288.558	2.05371
288.928	2.03175
289.299	2.01183
289.669	2.0062
290.039	1.99657
290.409	1.99579
290.779	1.9857
291.149	1.98467
291.52	1.97569
291.89	1.96083
292.26	1.94359
292.629	1.91987
292.999	1.87967
293.369	1.84558
293.739	1.79931
294.109	1.75933
294.479	1.7206
294.848	1.67957
295.218	1.64214
295.588	1.60657
295.957	1.5744
296.327	1.54951
296.696	1.51976
297.066	1.49448
297.435	1.47147
297.805	1.45189
298.174	1.43532
298.544	1.41654
298.913	1.39985
299.282	1.3855
299.651	1.3722
300.021	1.35971
300.39	1.34538
300.759	1.33151
301.128	1.32015
301.497	1.30539
301.866	1.29487
302.235	1.28379
302.604	1.27325
302.973	1.26477
303.342	1.25887
303.71	1.25425
304.079	1.25309
304.448	1.25349
304.817	1.25343
305.185	1.25505
305.554	1.25696
305.923	1.25817
306.291	1.25976
306.66	1.25725
307.028	1.25363
307.397	1.24817
307.765	1.23897
308.133	1.22869
308.502	1.21725
308.87	1.20269
309.238	1.1916
309.606	1.18096
309.975	1.17063
310.343	1.16352
310.711	1.15587
311.079	1.15092
311.447	1.14643
311.815	1.14316
312.183	1.14011
312.551	1.13886
312.919	1.13748
313.286	1.13804
313.654	1.13815
314.022	1.1382
314.39	1.13766
314.757	1.13774
315.125	1.13888
315.492	1.13964
315.86	1.1415
316.228	1.14384
316.595	1.14939
316.962	1.15354
317.33	1.1565
317.697	1.15811
318.065	1.15859
318.432	1.15605
318.799	1.15133
319.166	1.14315
319.534	1.13515
319.901	1.1289
320.268	1.12154
320.635	1.11546
321.002	1.10905
321.369	1.10341
321.736	1.09706
322.103	1.09115
322.47	1.08389
322.836	1.08191
323.203	1.0785
323.57	1.07973
323.937	1.08027
324.303	1.08112
324.67	1.08388
325.037	1.08633
325.403	1.08399
325.77	1.08199
326.136	1.07816
326.503	1.07447
326.869	1.07042
327.235	1.06508
327.602	1.05812
327.968	1.0535
328.334	1.04821
328.7	1.04238
329.067	1.03726
329.433	1.03329
329.799	1.02907
330.165	1.02758
330.531	1.02668
330.897	1.02615
331.263	1.02618
331.629	1.02591
331.995	1.02602
332.36	1.02793
332.726	1.02811
333.092	1.02786
333.458	1.02796
333.823	1.02648
334.189	1.02569
334.554	1.02595
334.92	1.02666
335.286	1.02563
335.651	1.02517
336.016	1.025
336.382	1.02525
336.747	1.02634
337.113	1.02551
337.478	1.02326
337.843	1.02292
338.208	1.02306
338.573	1.02235
338.939	1.02265
339.304	1.01935
339.669	1.01898
340.034	1.01732
340.399	1.01736
340.764	1.01514
341.129	1.01432
341.493	1.01354
341.858	1.01498
342.223	1.01718
342.588	1.01909
342.952	1.02075
343.317	1.02217
343.682	1.02449
344.046	1.02575
344.411	1.0272
344.775	1.02949
345.14	1.03133
345.504	1.03296
345.869	1.03443
346.233	1.03454
346.597	1.03555
346.962	1.03706
347.326	1.03561
347.69	1.03476
348.054	1.03394
348.418	1.03389
348.782	1.03314
349.146	1.03244
349.51	1.0306
349.874	1.02907
350.238	1.02756
350.602	1.02473
350.966	1.02084
351.33	1.0184
351.693	1.01496
352.057	1.01091
352.421	1.00845
352.784	1.00649
353.148	1.0044
353.512	1.00444
353.875	1.00375
354.239	1.0037
354.602	1.00441
354.966	1.00352
355.329	1.00516
355.692	1.00688
356.056	1.00718
356.419	1.00735
356.782	1.00982
357.145	1.01147
357.508	1.01305
357.871	1.01408
358.234	1.01517
358.597	1.01783
358.96	1.02013
359.323	1.02071
359.686	1.02316
360.049	1.02479
360.412	1.02609
360.775	1.02863
361.137	1.03004
361.5	1.0301
361.863	1.03198
362.225	1.0326
362.588	1.03369
362.951	1.0326
363.313	1.03162
363.675	1.03004
364.038	1.02962
364.4	1.02692
364.763	1.0236
365.125	1.01954
365.487	1.01554
365.849	1.01244
366.212	1.0093
366.574	1.00644
366.936	1.00353
367.298	1.00216
367.66	1.00197
368.022	1.00404
368.384	1.00541
368.746	1.00751
369.108	1.01077
369.469	1.01455
369.831	1.01717
370.193	1.01875
370.555	1.02117
370.916	1.02133
371.278	1.02084
371.64	1.01869
372.001	1.01616
372.363	1.0132
372.724	1.01138
373.086	1.00795
373.447	1.00448
373.808	1.0012
374.17	0.99908
374.531	0.99632
374.892	0.99553
375.253	0.99365
375.615	0.99159
375.976	0.99029
376.337	0.9887
376.698	0.98678
377.059	0.98505
377.42	0.98238
377.781	0.98094
378.141	0.97899
378.502	0.97865
378.863	0.97814
379.224	0.97888
379.585	0.9798
379.945	0.98151
380.306	0.98435
380.666	0.98855
381.027	0.98964
381.388	0.99222
381.748	0.99461
382.108	0.99671
382.469	0.99846
382.829	0.99889
383.19	0.99692
383.55	0.99857
383.91	0.99898
384.27	0.99891
384.63	0.99721
384.991	0.99518
385.351	0.99347
385.711	0.99159
386.071	0.98718
386.431	0.98299
386.791	0.97781
387.15	0.97455
387.51	0.96924
387.87	0.96516
388.23	0.96227
388.589	0.96074
388.949	0.95934
389.309	0.95933
389.668	0.95868
390.028	0.95976
390.387	0.95771
390.747	0.9563
391.106	0.95132
391.466	0.94548
391.825	0.9388
392.184	0.93472
392.544	0.93214
392.903	0.93142
393.262	0.93178
393.621	0.93657
393.98	0.94377
394.339	0.95287
394.698	0.96116
395.057	0.96733
395.416	0.97443
395.775	0.97852
396.134	0.98008
396.493	0.98021
396.852	0.97846
397.211	0.97487
397.569	0.97237
397.928	0.97083
398.287	0.97209
398.645	0.97525
399.004	0.97916
399.362	0.98507
399.721	0.99261
400.079	1.00227
400.438	1.01084
400.796	1.01734
401.154	1.02354
401.512	1.02929
401.871	1.03295
402.229	1.03682
402.587	1.03774
402.945	1.03593
403.303	1.03287
403.661	1.02669
404.019	1.02034
404.377	1.01386
404.735	1.00648
405.093	0.99888
405.451	0.99557
405.808	0.99486
406.166	0.99746
406.524	0.99831
406.882	0.99935
407.239	0.99786
407.597	0.99665
407.954	0.99384
408.312	0.98899
408.669	0.98361
409.027	0.9805
409.384	0.97847
409.741	0.97844
410.099	0.97975
410.456	0.97766
410.813	0.9766
411.17	0.97418
411.527	0.97087
411.884	0.96726
412.242	0.96475
412.599	0.96109
412.956	0.96033
413.312	0.96187
413.669	0.96506
414.026	0.96887
414.383	0.972
414.74	0.97748
415.096	0.98368
415.453	0.98869
415.81	0.99281
416.166	0.99847
416.523	1.00334
416.879	1.00991
417.236	1.01377
417.592	1.01805
417.949	1.02215
418.305	1.02628
418.661	1.02971
419.018	1.03453
419.374	1.03678
419.73	1.03807
420.086	1.03699
420.442	1.03743
420.798	1.03934
421.154	1.04119
421.51	1.04469
421.866	1.05171
422.222	1.06227
422.578	1.07781
422.934	1.0958
423.29	1.11473
423.646	1.13514
424.001	1.15751
424.357	1.18102
424.713	1.20416
425.068	1.22929
425.424	1.25433
425.779	1.27782
426.135	1.30188
426.49	1.32157
426.845	1.34046
427.201	1.36034
427.556	1.37537
427.911	1.38831
428.266	1.3991
428.622	1.40415
428.977	1.40898
429.332	1.41257
429.687	1.41151
430.042	1.41302
430.397	1.415
430.752	1.41717
431.107	1.42141
431.461	1.42632
431.816	1.42589
432.171	1.42515
432.526	1.42011
432.88	1.41253
433.235	1.40587
433.59	1.4024
433.944	1.39672
434.299	1.39461
434.653	1.39324
435.008	1.39065
435.362	1.3903
435.716	1.39212
436.071	1.38652
436.425	1.38642
436.779	1.38548
437.133	1.3874
437.487	1.39321
437.841	1.39876
438.195	1.40088
438.549	1.41058
438.903	1.42057
439.257	1.43008
439.611	1.43732
439.965	1.44239
440.319	1.44842
440.673	1.45495
441.026	1.4592
441.38	1.46102
441.734	1.46481
442.087	1.46644
442.441	1.46913
442.794	1.47153
443.148	1.47536
443.501	1.47608
443.855	1.47468
444.208	1.47062
444.561	1.46948
444.915	1.47054
445.268	1.46484
445.621	1.45799
445.974	1.45361
446.327	1.4491
446.68	1.44543
447.033	1.43983
447.386	1.42852
447.739	1.42453
448.092	1.42089
448.445	1.41445
448.798	1.40864
449.15	1.40369
449.503	1.3969
449.856	1.39408
450.209	1.38937
450.561	1.38285
450.914	1.37812
451.266	1.37364
451.619	1.36845
451.971	1.36922
452.323	1.3671
452.676	1.36642
453.028	1.36735
453.38	1.3677
453.733	1.36848
454.085	1.37072
454.437	1.36966
454.789	1.37057
455.141	1.37248
455.493	1.37311
455.845	1.37254
456.197	1.37247
456.549	1.37238
456.901	1.37245
457.253	1.37428
457.604	1.37327
457.956	1.37204
458.308	1.37245
458.659	1.37198
459.011	1.37238
459.362	1.37209
459.714	1.36967
460.065	1.36968
460.417	1.37103
460.768	1.3731
461.12	1.37337
461.471	1.37088
461.822	1.37267
462.173	1.37264
462.525	1.37241
462.876	1.37119
463.227	1.37029
463.578	1.3684
463.929	1.37005
464.28	1.36757
464.631	1.36719
464.982	1.36482
465.332	1.36376
465.683	1.36351
466.034	1.36416
466.385	1.36324
466.735	1.36271
467.086	1.36105
467.437	1.3619
467.787	1.36047
468.138	1.35889
468.488	1.35655
468.839	1.35337
469.189	1.35252
469.539	1.35207
469.89	1.34837
470.24	1.34596
470.59	1.34542
470.94	1.34706
471.29	1.34966
471.64	1.34736
471.99	1.3457
472.34	1.34476
472.69	1.34319
473.04	1.34084
473.39	1.33553
473.74	1.3306
474.09	1.32844
474.439	1.32496
474.789	1.32184
475.139	1.31946
475.488	1.31529
475.838	1.3137
476.188	1.31016
476.537	1.30487
476.886	1.30151
477.236	1.29764
477.585	1.29371
477.935	1.28751
478.284	1.28282
478.633	1.278
478.982	1.27514
479.331	1.27095
479.68	1.2666
480.03	1.26363
480.379	1.2617
480.728	1.256
481.076	1.25229
481.425	1.24641
481.774	1.24167
482.123	1.23785
482.472	1.23257
482.821	1.22668
483.169	1.2237
483.518	1.21988
483.866	1.21464
484.215	1.21031
484.563	1.20462
484.912	1.19966
485.26	1.19656
485.609	1.19235
485.957	1.18771
486.305	1.18443
486.654	1.1816
487.002	1.17981
487.35	1.17852
487.698	1.17517
488.046	1.17385
488.394	1.1724
488.742	1.17349
489.09	1.17037
489.438	1.16969
489.786	1.16701
490.134	1.16765
490.482	1.16597
490.829	1.16672
491.177	1.16459
491.525	1.16622
491.872	1.16565
492.22	1.16487
492.567	1.1641
492.915	1.16419
493.262	1.16443
493.61	1.1652
493.957	1.16664
494.304	1.16625
494.652	1.16751
494.999	1.169
495.346	1.1691
495.693	1.16674
496.04	1.16629
496.387	1.16529
496.734	1.16483
497.081	1.16373
497.428	1.16197
497.775	1.16275
498.122	1.16271
498.469	1.16244
498.816	1.1613
499.162	1.15973
499.509	1.15836
499.856	1.1569
500.202	1.15293
500.549	1.15196
500.895	1.15087
501.242	1.14796
501.588	1.1462
501.935	1.14626
502.281	1.14363
502.627	1.14293
502.973	1.14031
503.32	1.13732
503.666	1.13588
504.012	1.13334
504.358	1.13059
504.704	1.12894
505.05	1.12627
505.396	1.12444
505.742	1.11993
506.088	1.11823
506.433	1.11673
506.779	1.11513
507.125	1.11089
507.471	1.10725
507.816	1.10324
508.162	1.10096
508.507	1.09688
508.853	1.09448
509.198	1.08856
509.544	1.08639
509.889	1.08385
510.234	1.08079
510.58	1.07632
510.925	1.07361
511.27	1.06999
511.615	1.06787
511.96	1.06555
512.306	1.06281
512.651	1.05943
512.996	1.05742
513.341	1.05488
513.685	1.0514
514.03	1.04787
514.375	1.0445
514.72	1.04017
515.065	1.03722
515.409	1.03494
515.754	1.03029
516.099	1.02597
516.443	1.02223
516.788	1.01762
517.132	1.01544
517.476	1.01151
517.821	1.00764
518.165	1.00326
518.51	0.99973
518.854	0.9962
519.198	0.99327
519.542	0.98808
519.886	0.98534
520.23	0.98192
520.574	0.97993
520.918	0.97709
521.262	0.97405
521.606	0.97041
521.95	0.96903
522.294	0.96672
522.638	0.96451
522.981	0.96155
523.325	0.95918
523.669	0.9574
524.012	0.95597
524.356	0.95309
524.699	0.94983
525.043	0.94675
525.386	0.94424
525.73	0.94211
526.073	0.94072
526.416	0.93879
526.76	0.93749
527.103	0.9362
527.446	0.93473
527.789	0.93348
528.132	0.93243
528.475	0.93103
528.818	0.93006
529.161	0.92881
529.504	0.92795
529.847	0.92858
530.19	0.92769
530.532	0.92708
530.875	0.92695
531.218	0.92597
531.56	0.92542
531.903	0.92508
532.246	0.9243
532.588	0.92409
532.93	0.92466
533.273	0.92312
533.615	0.92358
533.958	0.92486
534.3	0.92481
534.642	0.92527
534.984	0.92554
535.326	0.9249
535.669	0.92599
536.011	0.92584
536.353	0.92429
536.695	0.92453
537.037	0.92426
537.378	0.92432
537.72	0.92501
538.062	0.92548
538.404	0.92645
538.746	0.92776
539.087	0.9286
539.429	0.92934
539.77	0.93135
540.112	0.9316
540.454	0.93145
540.795	0.93001
541.136	0.92987
541.478	0.92994
541.819	0.93054
542.16	0.92937
542.502	0.93081
542.843	0.93175
543.184	0.93268
543.525	0.93276
543.866	0.93376
544.207	0.9346
544.548	0.93463
544.889	0.93379
545.23	0.93309
545.571	0.93421
545.911	0.93489
546.252	0.93284
546.593	0.93188
546.934	0.93204
547.274	0.93141
547.615	0.92974
547.955	0.92891
548.296	0.92735
548.636	0.92644
548.977	0.92504
549.317	0.92488
549.657	0.92364
549.997	0.92309
550.338	0.9214
550.678	0.92019
551.018	0.91938
551.358	0.91729
551.698	0.91574
552.038	0.91405
552.378	0.91302
552.718	0.91066
553.058	0.90847
553.398	0.90695
553.737	0.90587
554.077	0.90276
554.417	0.89997
554.756	0.89788
555.096	0.89629
555.435	0.89462
555.775	0.89301
556.114	0.89087
556.454	0.88913
556.793	0.8873
557.133	0.88407
557.472	0.88072
557.811	0.87826
558.15	0.87447
558.489	0.87119
558.829	0.8682
559.168	0.86648
559.507	0.86379
559.846	0.8617
560.184	0.85927
560.523	0.85748
560.862	0.85405
561.201	0.85139
561.54	0.84709
561.878	0.8455
562.217	0.84405
562.556	0.84164
562.894	0.83968
563.233	0.83737
563.571	0.83388
563.91	0.83166
564.248	0.82909
564.586	0.82527
564.925	0.82265
565.263	0.81868
565.601	0.81624
565.939	0.81302
566.277	0.81153
566.616	0.80834
566.954	0.80605
567.292	0.80387
567.63	0.80194
567.967	0.80007
568.305	0.79919
568.643	0.7965
568.981	0.79425
569.319	0.79176
569.656	0.78963
569.994	0.78748
570.331	0.78625
570.669	0.7838
571.006	0.7824
571.344	0.78134
571.681	0.7792
572.019	0.77661
572.356	0.77477
572.693	0.77139
573.03	0.77076
573.368	0.76788
573.705	0.76617
574.042	0.76532
574.379	0.76426
574.716	0.76393
575.053	0.76363
575.39	0.76217
575.727	0.76147
576.063	0.75982
576.4	0.75899
576.737	0.75733
577.074	0.75636
577.41	0.75517
577.747	0.75484
578.083	0.75377
578.42	0.75188
578.756	0.75105
579.093	0.75084
579.429	0.74876
579.766	0.74784
580.102	0.74579
580.438	0.74575
580.774	0.74554
581.11	0.74538
581.446	0.74411
581.782	0.74417
582.119	0.74381
582.454	0.74339
582.79	0.74238
583.126	0.74237
583.462	0.74077
583.798	0.7408
584.134	0.74008
584.469	0.73945
584.805	0.73965
585.141	0.73938
585.476	0.73899
585.812	0.73932
586.147	0.73918
586.482	0.73919
586.818	0.73861
587.153	0.73804
587.488	0.73762
587.824	0.73783
588.159	0.73845
588.494	0.73766
588.829	0.73763
589.164	0.73715
589.499	0.73761
589.834	0.73809
590.169	0.73864
590.504	0.73775
590.839	0.73828
591.174	0.73765
591.508	0.73845
591.843	0.73797
592.178	0.73781
592.512	0.73681
592.847	0.73724
593.181	0.73737
593.516	0.7381
593.85	0.73802
594.185	0.73746
594.519	0.73671
594.853	0.73661
595.187	0.73604
595.522	0.73563
595.856	0.73539
596.19	0.736
596.524	0.73688
596.858	0.73686
597.192	0.73725
597.526	0.73709
597.86	0.73699
598.194	0.73617
598.527	0.73557
