Data from no-cure_1e-6_Relative_16-13-54-109.txt Node
Date: Fri Aug 18 16:13:54 EDT 2023
User: UV-vis
Spectrometer: FLMS04918
Trigger mode: 0
Integration Time (sec): 1.000000E-1
Scans to average: 3
Electric dark correction enabled: true
Nonlinearity correction enabled: false
Boxcar width: 3
XAxis mode: Wavelengths
Number of Pixels in Spectrum: 2048
>>>>>Begin Spectral Data<<<<<
179.23	26.44172
179.611	23.89977
179.992	22.45046
180.373	20.73268
180.754	13.91876
181.134	8.13732
181.515	-8.54484
181.896	17.07706
182.276	21.22376
182.657	-5.40195
183.038	-55.23416
183.418	-30.13621
183.799	-505.55556
184.179	3.96371
184.56	60.8747
184.94	27.89954
185.32	-9.76587
185.701	-23.18874
186.081	-51.76089
186.461	-49.39247
186.842	17.7319
187.222	19.33697
187.602	19.69663
187.982	19.77109
188.362	19.65517
188.742	19.80653
189.122	19.70274
189.502	19.68964
189.882	19.73399
190.262	19.7002
190.642	19.68582
191.022	19.84933
191.402	19.79218
191.781	19.97739
192.161	20.02538
192.541	20.0018
192.92	19.98606
193.3	19.98706
193.68	19.95583
194.059	19.86249
194.439	19.74288
194.818	19.74835
195.198	19.83314
195.577	19.85915
195.957	19.84859
196.336	19.77255
196.715	19.87138
197.094	19.88915
197.474	19.96163
197.853	19.91223
198.232	19.86841
198.611	19.93627
198.99	19.98366
199.369	19.9792
199.748	20.03676
200.127	19.99266
200.506	20.10133
200.885	20.09201
201.264	20.01777
201.643	20.09556
202.022	20.10702
202.401	20.10391
202.779	20.14084
203.158	19.97227
203.537	20.00972
203.915	20.07536
204.294	19.91305
204.673	19.98174
205.051	19.97889
205.43	19.94434
205.808	19.94943
206.187	19.88294
206.565	19.9142
206.943	19.9722
207.322	19.90897
207.7	19.98039
208.078	19.97817
208.456	20.04084
208.835	20.11312
209.213	19.99858
209.591	19.99954
209.969	20.01674
210.347	19.88171
210.725	19.81971
211.103	19.81239
211.481	19.80948
211.859	19.88152
212.237	19.81338
212.614	19.85052
212.992	19.88413
213.37	19.97341
213.748	20.01427
214.125	20.08054
214.503	20.05836
214.881	20.0513
215.258	19.97015
215.636	19.96836
216.013	19.89942
216.391	19.93027
216.768	19.8588
217.145	19.83942
217.523	19.9479
217.9	19.98695
218.277	19.97017
218.655	19.97932
219.032	19.91378
219.409	19.97871
219.786	19.96766
220.163	19.93765
220.54	19.89037
220.917	19.78866
221.294	19.79736
221.671	19.76565
222.048	19.70613
222.425	19.77142
222.802	19.74493
223.179	19.73626
223.556	19.71249
223.932	19.67179
224.309	19.6151
224.686	19.59175
225.062	19.55409
225.439	19.55566
225.815	19.43996
226.192	19.501
226.568	19.56869
226.945	19.56513
227.321	19.61215
227.698	19.69676
228.074	19.72657
228.45	19.84795
228.827	19.86511
229.203	19.80872
229.579	19.83667
229.955	19.81162
230.331	19.75504
230.707	19.84727
231.083	19.76866
231.46	19.80108
231.835	19.83811
232.211	19.88832
232.587	19.80926
232.963	19.6821
233.339	19.58856
233.715	19.68914
234.091	19.75964
234.466	19.79493
234.842	19.72885
235.218	19.87017
235.593	19.96046
235.969	20.0139
236.344	20.0118
236.72	19.95874
237.095	19.98234
237.471	19.96938
237.846	19.86881
238.222	19.8608
238.597	19.79233
238.972	19.68712
239.348	19.66296
239.723	19.61133
240.098	19.67409
240.473	19.67809
240.848	19.70406
241.223	19.70943
241.598	19.83613
241.973	19.90567
242.348	19.93081
242.723	19.87281
243.098	19.9319
243.473	19.87701
243.848	19.8446
244.223	19.86291
244.597	19.82375
244.972	19.75603
245.347	19.81309
245.721	19.82192
246.096	19.8459
246.47	19.98936
246.845	19.94607
247.219	19.89084
247.594	19.85798
247.968	19.80625
248.343	19.73461
248.717	19.86745
249.091	19.71088
249.466	19.66412
249.84	19.72521
250.214	19.78883
250.588	19.79697
250.962	19.85537
251.336	19.70218
251.71	19.80986
252.084	19.84126
252.458	19.81228
252.832	19.81237
253.206	19.84197
253.58	19.80556
253.954	19.77082
254.328	19.65682
254.702	19.62838
255.075	19.59466
255.449	19.56631
255.823	19.58584
256.196	19.53444
256.57	19.61914
256.943	19.62586
257.317	19.63984
257.69	19.69324
258.064	19.63244
258.437	19.51704
258.81	19.53049
259.184	19.44981
259.557	19.49035
259.93	19.41839
260.303	19.40333
260.677	19.4008
261.05	19.52615
261.423	19.52978
261.796	19.5884
262.169	19.5313
262.542	19.50382
262.915	19.39423
263.288	19.40257
263.661	19.29829
264.033	19.32515
264.406	19.22568
264.779	19.21628
265.152	19.29163
265.524	19.30889
265.897	19.3452
266.27	19.38578
266.642	19.40722
267.015	19.45051
267.387	19.4512
267.76	19.42931
268.132	19.43417
268.504	19.3911
268.877	19.30316
269.249	19.23565
269.621	19.20893
269.994	19.23389
270.366	19.20924
270.738	19.21976
271.11	19.22417
271.482	19.21998
271.854	19.19796
272.226	19.12025
272.598	19.10172
272.97	19.14648
273.342	19.13096
273.714	19.21377
274.086	19.24026
274.458	19.23227
274.829	19.30739
275.201	19.35433
275.573	19.31273
275.944	19.32264
276.316	19.17716
276.688	19.1536
277.059	19.19531
277.431	19.16351
277.802	19.08637
278.173	19.0839
278.545	19.02067
278.916	19.04333
279.287	19.01989
279.659	18.94519
280.03	18.88394
280.401	18.85665
280.772	18.82402
281.143	18.759
281.515	18.68731
281.886	18.66332
282.257	18.69132
282.628	18.94159
282.998	19.4448
283.369	20.36782
283.74	21.94041
284.111	24.07779
284.482	27.0699
284.853	31.03361
285.223	35.98806
285.594	42.04684
285.965	49.03868
286.335	56.79873
286.706	65.09039
287.076	73.47204
287.447	81.45791
287.817	88.90547
288.188	95.41414
288.558	100.73142
288.928	104.69125
289.299	107.47163
289.669	109.22793
290.039	110.2164
290.409	110.43928
290.779	110.35762
291.149	110.37577
291.52	110.37642
291.89	110.37436
292.26	110.37481
292.629	110.46811
292.999	110.71452
293.369	110.94641
293.739	110.95857
294.109	110.9578
294.479	110.95833
294.848	110.95789
295.218	110.95719
295.588	110.95822
295.957	110.95622
296.327	110.95644
296.696	110.95574
297.066	110.95541
297.435	110.95576
297.805	110.95666
298.174	110.95714
298.544	110.95721
298.913	110.95703
299.282	110.9587
299.651	110.95943
300.021	110.95936
300.39	110.95897
300.759	110.9578
301.128	110.95853
301.497	110.9578
301.866	110.95666
302.235	110.95756
302.604	110.95741
302.973	110.95807
303.342	110.95804
303.71	110.95815
304.079	110.95804
304.448	110.95897
304.817	110.95754
305.185	110.95763
305.554	110.95763
305.923	110.95835
306.291	110.95793
306.66	110.95826
307.028	110.95881
307.397	110.9589
307.765	110.95912
308.133	110.95989
308.502	110.9591
308.87	110.95954
309.238	110.95954
309.606	110.95868
309.975	110.9598
310.343	110.96037
310.711	110.95919
311.079	110.95998
311.447	110.96108
311.815	110.96169
312.183	110.96145
312.551	110.96156
312.919	110.96055
313.286	110.96106
313.654	110.9611
314.022	110.95894
314.39	110.95752
314.757	110.95749
315.125	110.95631
315.492	110.95686
315.86	110.95648
316.228	110.95556
316.595	110.95688
316.962	110.95868
317.33	110.95857
317.697	110.95872
318.065	110.95941
318.432	110.95941
318.799	110.95969
319.166	110.95919
319.534	110.95897
319.901	110.95985
320.268	110.96075
320.635	110.9602
321.002	110.96055
321.369	110.9602
321.736	110.96062
322.103	110.95934
322.47	110.95974
322.836	110.96055
323.203	110.95998
323.57	110.95888
323.937	110.95901
324.303	110.95919
324.67	110.95996
325.037	110.95949
325.403	110.95785
325.77	110.9587
326.136	110.9611
326.503	110.96095
326.869	110.96064
327.235	110.96011
327.602	110.95998
327.968	110.96075
328.334	110.96114
328.7	110.96073
329.067	110.96205
329.433	110.96251
329.799	110.96321
330.165	110.96194
330.531	110.96255
330.897	110.96233
331.263	110.96119
331.629	110.96114
331.995	110.96073
332.36	110.96081
332.726	110.96233
333.092	110.96231
333.458	110.96207
333.823	110.9618
334.189	110.96132
334.554	110.96141
334.92	110.96046
335.286	110.9593
335.651	110.95721
336.016	110.95626
336.382	110.95617
336.747	110.95585
337.113	110.95596
337.478	110.95672
337.843	110.95785
338.208	110.95833
338.573	110.95914
338.939	110.9591
339.304	110.95967
339.669	110.95985
340.034	110.95982
340.399	110.96013
340.764	110.96099
341.129	110.96059
341.493	110.96048
341.858	110.96059
342.223	110.9611
342.588	110.96152
342.952	110.9604
343.317	110.9602
343.682	110.96031
344.046	110.9607
344.411	110.96081
344.775	110.95936
345.14	110.95976
345.504	110.96053
345.869	110.96022
346.233	110.96046
346.597	110.96064
346.962	110.96062
347.326	110.96066
347.69	110.96007
348.054	110.96009
348.418	110.96066
348.782	110.96046
349.146	110.95987
349.51	110.95879
349.874	110.95923
350.238	110.95956
350.602	110.9593
350.966	110.95947
351.33	110.95894
351.693	110.95965
352.057	110.96068
352.421	110.96134
352.784	110.9604
353.148	110.95974
353.512	110.95894
353.875	110.96044
354.239	110.96068
354.602	110.95965
354.966	110.95861
355.329	110.9596
355.692	110.96073
356.056	110.96121
356.419	110.96042
356.782	110.9609
357.145	110.96117
357.508	110.96114
357.871	110.96024
358.234	110.95927
358.597	110.95877
358.96	110.95868
359.323	110.95712
359.686	110.95659
360.049	110.95789
360.412	110.9582
360.775	110.95897
361.137	110.9582
361.5	110.95807
361.863	110.95879
362.225	110.96053
362.588	110.96064
362.951	110.96106
363.313	110.96022
363.675	110.96097
364.038	110.96081
364.4	110.9611
364.763	110.95976
365.125	110.95941
365.487	110.95947
365.849	110.96015
366.212	110.95919
366.574	110.96055
366.936	110.96101
367.298	110.96156
367.66	110.96123
368.022	110.96068
368.384	110.96026
368.746	110.96262
369.108	110.96103
369.469	110.95976
369.831	110.95892
370.193	110.95866
370.555	110.95952
370.916	110.95987
371.278	110.95835
371.64	110.9578
372.001	110.95833
372.363	110.95769
372.724	110.95881
373.086	110.95897
373.447	110.95941
373.808	110.96033
374.17	110.96024
374.531	110.95965
374.892	110.96154
375.253	110.95954
375.615	110.95894
375.976	110.95723
376.337	110.95705
376.698	110.95921
377.059	110.95998
377.42	110.96092
377.781	110.96249
378.141	110.9624
378.502	110.9637
378.863	110.96326
379.224	110.96235
379.585	110.96196
379.945	110.96187
380.306	110.96183
380.666	110.9624
381.027	110.96211
381.388	110.96161
381.748	110.96194
382.108	110.96187
382.469	110.96009
382.829	110.95952
383.19	110.95914
383.55	110.95905
383.91	110.95976
384.27	110.95842
384.63	110.95752
384.991	110.95837
385.351	110.958
385.711	110.95617
386.071	110.95615
386.431	110.95611
386.791	110.95622
387.15	110.95822
387.51	110.95811
387.87	110.95793
388.23	110.95941
388.589	110.96024
388.949	110.96097
389.309	110.96218
389.668	110.96114
390.028	110.96079
390.387	110.96185
390.747	110.96178
391.106	110.96231
391.466	110.96163
391.825	110.96229
392.184	110.96304
392.544	110.96363
392.903	110.96339
393.262	110.96299
393.621	110.9618
393.98	110.96273
394.339	110.96108
394.698	110.95967
395.057	110.95989
395.416	110.96018
395.775	110.96073
396.134	110.96077
396.493	110.95956
396.852	110.96029
397.211	110.96169
397.569	110.96154
397.928	110.96156
398.287	110.96106
398.645	110.96229
399.004	110.96207
399.362	110.96249
399.721	110.96172
400.079	110.96106
400.438	110.96189
400.796	110.96297
401.154	110.96227
401.512	110.96238
401.871	110.96235
402.229	110.96304
402.587	110.964
402.945	110.96268
403.303	110.96106
403.661	110.96099
404.019	110.96117
404.377	110.96051
404.735	110.95963
405.093	110.95782
405.451	110.95857
405.808	110.95919
406.166	110.95851
406.524	110.95866
406.882	110.95697
407.239	110.95736
407.597	110.95822
407.954	110.95765
408.312	110.9582
408.669	110.9582
409.027	110.95802
409.384	110.95998
409.741	110.95927
410.099	110.95811
410.456	110.95756
410.813	110.95657
411.17	110.95655
411.527	110.95604
411.884	110.95574
412.242	110.9571
412.599	110.95892
412.956	110.95989
413.312	110.9609
413.669	110.96209
414.026	110.96299
414.383	110.96323
414.74	110.96167
415.096	110.96064
415.453	110.95985
415.81	110.96013
416.166	110.95813
416.523	110.95736
416.879	110.95789
417.236	110.95908
417.592	110.95894
417.949	110.95897
418.305	110.95901
418.661	110.95978
419.018	110.96084
419.374	110.95987
419.73	110.96068
420.086	110.96154
420.442	110.96136
420.798	110.96119
421.154	110.96136
421.51	110.96125
421.866	110.96154
422.222	110.95998
422.578	110.95965
422.934	110.95974
423.29	110.96015
423.646	110.96002
424.001	110.95888
424.357	110.95789
424.713	110.95905
425.068	110.95855
425.424	110.95861
425.779	110.95934
426.135	110.96075
426.49	110.96156
426.845	110.9626
427.201	110.96255
427.556	110.96273
427.911	110.9635
428.266	110.96165
428.622	110.96031
428.977	110.96033
429.332	110.96123
429.687	110.96099
430.042	110.96097
430.397	110.95965
430.752	110.96042
431.107	110.9609
431.461	110.96092
431.816	110.9604
432.171	110.95952
432.526	110.95927
432.88	110.95965
433.235	110.95815
433.59	110.95855
433.944	110.95844
434.299	110.95945
434.653	110.95958
435.008	110.96081
435.362	110.96084
435.716	110.96268
436.071	110.96167
436.425	110.96209
436.779	110.96121
437.133	110.96211
437.487	110.96145
437.841	110.96251
438.195	110.96293
438.549	110.9635
438.903	110.96317
439.257	110.96376
439.611	110.96365
439.965	110.96282
440.319	110.9637
440.673	110.96337
441.026	110.96332
441.38	110.96352
441.734	110.96352
442.087	110.9629
442.441	110.9633
442.794	110.96161
443.148	110.9611
443.501	110.96114
443.855	110.96084
444.208	110.96013
444.561	110.95965
444.915	110.9602
445.268	110.96026
445.621	110.95952
445.974	110.95969
446.327	110.95903
446.68	110.9587
447.033	110.96033
447.386	110.96018
447.739	110.96077
448.092	110.96154
448.445	110.9611
448.798	110.96114
449.15	110.9624
449.503	110.96158
449.856	110.96198
450.209	110.96253
450.561	110.96158
450.914	110.96271
451.266	110.96345
451.619	110.96268
451.971	110.96249
452.323	110.96213
452.676	110.96044
453.028	110.96205
453.38	110.96051
453.733	110.96013
454.085	110.95932
454.437	110.95987
454.789	110.95991
455.141	110.96147
455.493	110.96112
455.845	110.96216
456.197	110.962
456.549	110.96229
456.901	110.96255
457.253	110.96249
457.604	110.96178
457.956	110.96051
458.308	110.96103
458.659	110.96163
459.011	110.96125
459.362	110.96042
459.714	110.96033
460.065	110.96033
460.417	110.96103
460.768	110.96051
461.12	110.95945
461.471	110.96055
461.822	110.96156
462.173	110.96194
462.525	110.96231
462.876	110.96222
463.227	110.96097
463.578	110.96178
463.929	110.96077
464.28	110.9593
464.631	110.95835
464.982	110.95888
465.332	110.95859
465.683	110.95934
466.034	110.95901
466.385	110.95903
466.735	110.95897
467.086	110.9591
467.437	110.95925
467.787	110.95927
468.138	110.95888
468.488	110.95985
468.839	110.96046
469.189	110.96037
469.539	110.96068
469.89	110.95982
470.24	110.95954
470.59	110.95989
470.94	110.96015
471.29	110.95941
471.64	110.96024
471.99	110.9609
472.34	110.96169
472.69	110.96121
473.04	110.96187
473.39	110.96163
473.74	110.96231
474.09	110.96213
474.439	110.96211
474.789	110.96156
475.139	110.96257
475.488	110.96191
475.838	110.96187
476.188	110.96163
476.537	110.962
476.886	110.96156
477.236	110.96029
477.585	110.96026
477.935	110.95998
478.284	110.95971
478.633	110.95969
478.982	110.95967
479.331	110.95985
479.68	110.96073
480.03	110.96099
480.379	110.96165
480.728	110.96112
481.076	110.96132
481.425	110.96161
481.774	110.96121
482.123	110.96055
482.472	110.96059
482.821	110.96095
483.169	110.9615
483.518	110.96161
483.866	110.96141
484.215	110.9613
484.563	110.96191
484.912	110.96084
485.26	110.96013
485.609	110.96112
485.957	110.96125
486.305	110.96037
486.654	110.9609
487.002	110.96227
487.35	110.96286
487.698	110.96253
488.046	110.96073
488.394	110.96051
488.742	110.96106
489.09	110.96112
489.438	110.96037
489.786	110.96176
490.134	110.96209
490.482	110.96385
490.829	110.96286
491.177	110.96385
491.525	110.96365
491.872	110.96264
492.22	110.96196
492.567	110.96161
492.915	110.96018
493.262	110.96086
493.61	110.95881
493.957	110.95974
494.304	110.9598
494.652	110.96046
494.999	110.9611
495.346	110.96095
495.693	110.96147
496.04	110.9633
496.387	110.96207
496.734	110.96275
497.081	110.96187
497.428	110.96165
497.775	110.96222
498.122	110.96209
498.469	110.96125
498.816	110.96227
499.162	110.96141
499.509	110.96121
499.856	110.96196
500.202	110.96216
500.549	110.962
500.895	110.96178
501.242	110.96128
501.588	110.96187
501.935	110.96134
502.281	110.96097
502.627	110.96086
502.973	110.96007
503.32	110.95945
503.666	110.95927
504.012	110.95899
504.358	110.95879
504.704	110.95723
505.05	110.95741
505.396	110.95905
505.742	110.95985
506.088	110.96029
506.433	110.96055
506.779	110.96106
507.125	110.96152
507.471	110.96073
507.816	110.95985
508.162	110.96086
508.507	110.96134
508.853	110.96183
509.198	110.96143
509.544	110.96315
509.889	110.96389
510.234	110.96341
510.58	110.96288
510.925	110.96246
511.27	110.9624
511.615	110.96273
511.96	110.96103
512.306	110.96075
512.651	110.96042
512.996	110.95958
513.341	110.95908
513.685	110.95829
514.03	110.95927
514.375	110.96123
514.72	110.96165
515.065	110.96279
515.409	110.96295
515.754	110.9624
516.099	110.9635
516.443	110.96231
516.788	110.96103
517.132	110.96002
517.476	110.95923
517.821	110.95985
518.165	110.96002
518.51	110.95877
518.854	110.95949
519.198	110.95947
519.542	110.96066
519.886	110.96088
520.23	110.96026
520.574	110.96042
520.918	110.96099
521.262	110.96084
521.606	110.96042
521.95	110.95945
522.294	110.95938
522.638	110.95932
522.981	110.95932
523.325	110.95919
523.669	110.95985
524.012	110.96026
524.356	110.96029
524.699	110.96103
525.043	110.96073
525.386	110.96121
525.73	110.96715
526.073	110.96581
526.416	110.9657
526.76	110.9666
527.103	110.96654
527.446	110.96881
527.789	110.96883
528.132	110.96374
528.475	110.96559
528.818	110.96566
529.161	110.96464
529.504	110.96337
529.847	110.96174
530.19	110.96147
530.532	110.96042
530.875	110.95789
531.218	110.95778
531.56	110.95802
531.903	110.95958
532.246	110.95919
532.588	110.95886
532.93	110.95967
533.273	110.96108
533.615	110.9611
533.958	110.96143
534.3	110.95996
534.642	110.96172
534.984	110.96202
535.326	110.96114
535.669	110.96163
536.011	110.96178
536.353	110.96169
536.695	110.96295
537.037	110.96255
537.378	110.962
537.72	110.96156
538.062	110.96037
538.404	110.95938
538.746	110.95941
539.087	110.95925
539.429	110.9589
539.77	110.95954
540.112	110.96055
540.454	110.962
540.795	110.96271
541.136	110.96284
541.478	110.96301
541.819	110.9622
542.16	110.96235
542.502	110.96207
542.843	110.96147
543.184	110.96209
543.525	110.96172
543.866	110.96048
544.207	110.96029
544.548	110.96009
544.889	110.95923
545.23	110.95894
545.571	110.95965
545.911	110.95952
546.252	110.96064
546.593	110.96123
546.934	110.96103
547.274	110.96213
547.615	110.96229
547.955	110.96167
548.296	110.96266
548.636	110.96253
548.977	110.96191
549.317	110.96326
549.657	110.9642
549.997	110.96493
550.338	110.964
550.678	110.96345
551.018	110.96249
551.358	110.96334
551.698	110.96275
552.038	110.96161
552.378	110.96084
552.718	110.96251
553.058	110.96297
553.398	110.96449
553.737	110.96392
554.077	110.9642
554.417	110.96409
554.756	110.9646
555.096	110.9631
555.435	110.96326
555.775	110.96187
556.114	110.96207
556.454	110.96084
556.793	110.96132
557.133	110.96125
557.472	110.96097
557.811	110.96051
558.15	110.96112
558.489	110.96079
558.829	110.96156
559.168	110.96112
559.507	110.96086
559.846	110.96191
560.184	110.96185
560.523	110.96196
560.862	110.96306
561.201	110.9635
