Data from no-cure_1e-9_Relative_16-12-40-614.txt Node
Date: Fri Aug 18 16:12:40 EDT 2023
User: UV-vis
Spectrometer: FLMS04918
Trigger mode: 0
Integration Time (sec): 1.000000E-1
Scans to average: 3
Electric dark correction enabled: true
Nonlinearity correction enabled: false
Boxcar width: 3
XAxis mode: Wavelengths
Number of Pixels in Spectrum: 2048
>>>>>Begin Spectral Data<<<<<
179.23	156.87117
179.611	146.74383
179.992	146.32673
180.373	119.89419
180.754	106.98925
181.134	73.49727
181.515	45.76988
181.896	50.228
182.276	49.84639
182.657	-11.18792
183.038	-10.51423
183.418	53.29171
183.799	411.7284
184.179	-29.56065
184.56	-158.27423
184.94	-13.65297
185.32	-71.81146
185.701	5.65298
186.081	21.73309
186.461	-38.57837
186.842	53.25273
187.222	56.55623
187.602	57.15573
187.982	56.74522
188.362	56.80144
188.742	56.98432
189.122	57.17847
189.502	57.2515
189.882	57.17707
190.262	57.01911
190.642	57.20247
191.022	57.07871
191.402	57.10553
191.781	57.06924
192.161	57.1606
192.541	57.28458
192.92	57.39104
193.3	57.49883
193.68	57.69243
194.059	57.49785
194.439	57.32579
194.818	57.45754
195.198	57.51569
195.577	57.51916
195.957	57.4039
196.336	57.26947
196.715	57.31218
197.094	57.48722
197.474	57.31282
197.853	57.04843
198.232	57.13342
198.611	57.25973
198.99	57.10149
199.369	57.1785
199.748	57.11223
200.127	57.1693
200.506	57.28174
200.885	57.39345
201.264	57.36883
201.643	57.51511
202.022	57.39563
202.401	57.43876
202.779	57.46364
203.158	57.42758
203.537	57.3787
203.915	57.40236
204.294	57.32554
204.673	57.45585
205.051	57.49451
205.43	57.3276
205.808	57.34114
206.187	57.03513
206.565	56.87891
206.943	57.00805
207.322	56.92844
207.7	57.094
208.078	57.23234
208.456	57.27383
208.835	57.61048
209.213	57.66725
209.591	57.52435
209.969	57.55297
210.347	57.19379
210.725	57.16979
211.103	57.24682
211.481	57.10004
211.859	57.24074
212.237	57.27467
212.614	57.25535
212.992	57.40242
213.37	57.51026
213.748	57.55393
214.125	57.39362
214.503	57.28977
214.881	57.40798
215.258	57.35444
215.636	57.45139
216.013	57.37271
216.391	57.27379
216.768	57.45576
217.145	57.55476
217.523	57.53718
217.9	57.67715
218.277	57.61892
218.655	57.68938
219.032	57.71049
219.409	57.68086
219.786	57.53704
220.163	57.53434
220.54	57.60299
220.917	57.57815
221.294	57.4765
221.671	57.66211
222.048	57.64959
222.425	57.77587
222.802	57.82881
223.179	57.86033
223.556	57.74551
223.932	57.62755
224.309	57.47034
224.686	57.34917
225.062	57.43712
225.439	57.42394
225.815	57.2536
226.192	57.19437
226.568	57.33505
226.945	57.29688
227.321	57.52501
227.698	57.26722
228.074	57.30319
228.45	57.24826
228.827	57.49262
229.203	57.38331
229.579	57.43121
229.955	57.23399
230.331	57.32339
230.707	57.14337
231.083	57.33966
231.46	57.14359
231.835	57.22751
232.211	57.22881
232.587	57.35695
232.963	57.281
233.339	57.4026
233.715	57.21612
234.091	57.36053
234.466	57.57058
234.842	57.60772
235.218	57.63768
235.593	57.86735
235.969	57.7676
236.344	57.98219
236.72	58.03028
237.095	57.77391
237.471	57.65546
237.846	57.61494
238.222	57.48811
238.597	57.49954
238.972	57.42496
239.348	57.19832
239.723	57.21992
240.098	57.394
240.473	57.37319
240.848	57.5177
241.223	57.56451
241.598	57.53944
241.973	57.8129
242.348	58.0504
242.723	57.87114
243.098	57.84771
243.473	57.75068
243.848	57.76004
244.223	57.914
244.597	57.82014
244.972	57.58678
245.347	57.58731
245.721	57.75833
246.096	57.68098
246.47	57.92394
246.845	57.54902
247.219	57.52903
247.594	57.62245
247.968	57.60293
248.343	57.47435
248.717	57.57399
249.091	57.39277
249.466	57.62448
249.84	57.62149
250.214	57.55812
250.588	57.7383
250.962	57.75409
251.336	57.75365
251.71	57.83741
252.084	57.8718
252.458	57.92136
252.832	57.9852
253.206	58.06038
253.58	58.03124
253.954	58.051
254.328	58.05148
254.702	57.94198
255.075	57.88394
255.449	57.9757
255.823	57.86928
256.196	57.93817
256.57	57.94759
256.943	57.78314
257.317	57.81174
257.69	57.91065
258.064	57.80633
258.437	57.90501
258.81	57.87898
259.184	57.81796
259.557	57.83526
259.93	57.8043
260.303	57.71731
260.677	57.73369
261.05	57.67639
261.423	57.44278
261.796	57.57968
262.169	57.67111
262.542	57.68471
262.915	57.70227
263.288	57.79643
263.661	57.86084
264.033	58.09934
264.406	57.9583
264.779	57.85944
265.152	58.02413
265.524	58.00685
265.897	58.03019
266.27	57.90688
266.642	57.83117
267.015	58.00106
267.387	58.04388
267.76	57.9548
268.132	57.9976
268.504	57.8936
268.877	57.94158
269.249	58.14729
269.621	57.99062
269.994	58.09463
270.366	58.05425
270.738	57.91442
271.11	57.91873
271.482	57.86986
271.854	57.73614
272.226	57.77691
272.598	57.72019
272.97	57.94203
273.342	58.03015
273.714	58.13398
274.086	58.26419
274.458	58.45827
274.829	58.43349
275.201	58.48793
275.573	58.29748
275.944	58.42801
276.316	58.34467
276.688	58.15638
277.059	58.05596
277.431	58.01128
277.802	57.88578
278.173	58.01323
278.545	57.90913
278.916	57.97257
279.287	58.0318
279.659	57.93162
280.03	57.83519
280.401	57.86042
280.772	57.69822
281.143	57.42313
281.515	57.26192
281.886	57.22146
282.257	57.49682
282.628	58.28591
282.998	59.70403
283.369	62.41088
283.74	66.77719
284.111	72.16744
284.482	78.58611
284.853	84.89361
285.223	90.89857
285.594	96.47754
285.965	100.90779
286.335	103.73441
286.706	105.19656
287.076	105.40536
287.447	105.40535
287.817	105.40525
288.188	105.4058
288.558	105.4061
288.928	105.40642
289.299	105.40676
289.669	105.40689
290.039	105.40643
290.409	105.40589
290.779	105.40578
291.149	105.40604
291.52	105.40638
291.89	105.4053
292.26	105.40554
292.629	105.40565
292.999	105.40587
293.369	105.40644
293.739	105.4062
294.109	105.40583
294.479	105.40609
294.848	105.40587
295.218	105.40552
295.588	105.40603
295.957	105.40504
296.327	105.40515
296.696	105.40481
297.066	105.40464
297.435	105.40482
297.805	105.40526
298.174	105.4055
298.544	105.40553
298.913	105.40545
299.282	105.40627
299.651	105.40663
300.021	105.4066
300.39	105.4064
300.759	105.40583
301.128	105.40618
301.497	105.40583
301.866	105.40526
302.235	105.40571
302.604	105.40563
302.973	105.40596
303.342	105.40594
303.71	105.406
304.079	105.40594
304.448	105.4064
304.817	105.4057
305.185	105.40574
305.554	105.40574
305.923	105.4061
306.291	105.40589
306.66	105.40605
307.028	105.40632
307.397	105.40637
307.765	105.40648
308.133	105.40686
308.502	105.40647
308.87	105.40668
309.238	105.40668
309.606	105.40626
309.975	105.40681
310.343	105.40709
310.711	105.40651
311.079	105.4069
311.447	105.40744
311.815	105.40775
312.183	105.40763
312.551	105.40768
312.919	105.40718
313.286	105.40743
313.654	105.40745
314.022	105.40639
314.39	105.40568
314.757	105.40567
315.125	105.40509
315.492	105.40536
315.86	105.40517
316.228	105.40472
316.595	105.40537
316.962	105.40626
317.33	105.4062
317.697	105.40628
318.065	105.40662
318.432	105.40662
318.799	105.40676
319.166	105.40651
319.534	105.4064
319.901	105.40683
320.268	105.40728
320.635	105.40701
321.002	105.40718
321.369	105.40701
321.736	105.40721
322.103	105.40658
322.47	105.40678
322.836	105.40718
323.203	105.4069
323.57	105.40636
323.937	105.40642
324.303	105.40651
324.67	105.40689
325.037	105.40666
325.403	105.40585
325.77	105.40627
326.136	105.40745
326.503	105.40738
326.869	105.40722
327.235	105.40696
327.602	105.4069
327.968	105.40728
328.334	105.40747
328.7	105.40727
329.067	105.40792
329.433	105.40815
329.799	105.40849
330.165	105.40787
330.531	105.40817
330.897	105.40806
331.263	105.4075
331.629	105.40747
331.995	105.40727
332.36	105.40731
332.726	105.40806
333.092	105.40805
333.458	105.40793
333.823	105.4078
334.189	105.40756
334.554	105.4076
334.92	105.40714
335.286	105.40656
335.651	105.40553
336.016	105.40507
336.382	105.40502
336.747	105.40486
337.113	105.40491
337.478	105.40529
337.843	105.40585
338.208	105.40609
338.573	105.40649
338.939	105.40647
339.304	105.40675
339.669	105.40683
340.034	105.40682
340.399	105.40698
340.764	105.4074
341.129	105.4072
341.493	105.40715
341.858	105.4072
342.223	105.40745
342.588	105.40766
342.952	105.40711
343.317	105.40701
343.682	105.40706
344.046	105.40726
344.411	105.40731
344.775	105.4066
345.14	105.40679
345.504	105.40717
345.869	105.40702
346.233	105.40714
346.597	105.40722
346.962	105.40721
347.326	105.40724
347.69	105.40694
348.054	105.40695
348.418	105.40724
348.782	105.40714
349.146	105.40685
349.51	105.40631
349.874	105.40653
350.238	105.40669
350.602	105.40656
350.966	105.40665
351.33	105.40639
351.693	105.40674
352.057	105.40725
352.421	105.40757
352.784	105.40711
353.148	105.40678
353.512	105.40639
353.875	105.40713
354.239	105.40725
354.602	105.40674
354.966	105.40623
355.329	105.40671
355.692	105.40727
356.056	105.40751
356.419	105.40712
356.782	105.40736
357.145	105.40749
357.508	105.40747
357.871	105.40703
358.234	105.40655
358.597	105.4063
358.96	105.40626
359.323	105.40549
359.686	105.40523
360.049	105.40587
360.412	105.40602
360.775	105.4064
361.137	105.40602
361.5	105.40596
361.863	105.40631
362.225	105.40717
362.588	105.40722
362.951	105.40743
363.313	105.40702
363.675	105.40739
364.038	105.40731
364.4	105.40745
364.763	105.40679
365.125	105.40662
365.487	105.40665
365.849	105.40699
366.212	105.40651
366.574	105.40718
366.936	105.40741
367.298	105.40768
367.66	105.40752
368.022	105.40725
368.384	105.40704
368.746	105.4082
369.108	105.40742
369.469	105.40679
369.831	105.40638
370.193	105.40625
370.555	105.40667
370.916	105.40685
371.278	105.4061
371.64	105.40583
372.001	105.40609
372.363	105.40577
372.724	105.40632
373.086	105.4064
373.447	105.40662
373.808	105.40707
374.17	105.40703
374.531	105.40674
374.892	105.40767
375.253	105.40668
375.615	105.40639
375.976	105.40554
376.337	105.40546
376.698	105.40652
377.059	105.4069
377.42	105.40737
377.781	105.40814
378.141	105.40809
378.502	105.40873
378.863	105.40852
379.224	105.40807
379.585	105.40788
379.945	105.40783
380.306	105.40781
380.666	105.40809
381.027	105.40795
381.388	105.4077
381.748	105.40787
382.108	105.40783
382.469	105.40695
382.829	105.40667
383.19	105.40649
383.55	105.40644
383.91	105.40679
384.27	105.40613
384.63	105.40568
384.991	105.40611
385.351	105.40592
385.711	105.40502
386.071	105.40501
386.431	105.40499
386.791	105.40504
387.15	105.40603
387.51	105.40598
387.87	105.40589
388.23	105.40662
388.589	105.40703
388.949	105.40739
389.309	105.40798
389.668	105.40747
390.028	105.4073
390.387	105.40782
390.747	105.40779
391.106	105.40805
391.466	105.40771
391.825	105.40804
392.184	105.40841
392.544	105.4087
392.903	105.40858
393.262	105.40839
393.621	105.4078
393.98	105.40826
394.339	105.40744
394.698	105.40675
395.057	105.40686
395.416	105.407
395.775	105.40727
396.134	105.40729
396.493	105.40669
396.852	105.40705
397.211	105.40775
397.569	105.40767
397.928	105.40768
398.287	105.40743
398.645	105.40804
399.004	105.40793
399.362	105.40814
399.721	105.40776
400.079	105.40743
400.438	105.40784
400.796	105.40838
401.154	105.40803
401.512	105.40808
401.871	105.40807
402.229	105.40841
402.587	105.40889
402.945	105.40823
403.303	105.40743
403.661	105.4074
404.019	105.40749
404.377	105.40716
404.735	105.40673
405.093	105.40584
405.451	105.4062
405.808	105.40651
406.166	105.40617
406.524	105.40625
406.882	105.40541
407.239	105.40561
407.597	105.40603
407.954	105.40575
408.312	105.40602
408.669	105.40602
409.027	105.40593
409.384	105.4069
409.741	105.40655
410.099	105.40598
410.456	105.40571
410.813	105.40522
411.17	105.40521
411.527	105.40496
411.884	105.40481
412.242	105.40548
412.599	105.40638
412.956	105.40686
413.312	105.40736
413.669	105.40794
414.026	105.40839
414.383	105.40851
414.74	105.40773
415.096	105.40722
415.453	105.40683
415.81	105.40698
416.166	105.40599
416.523	105.40561
416.879	105.40587
417.236	105.40645
417.592	105.40639
417.949	105.4064
418.305	105.40642
418.661	105.4068
419.018	105.40732
419.374	105.40685
419.73	105.40725
420.086	105.40767
420.442	105.40758
420.798	105.4075
421.154	105.40758
421.51	105.40753
421.866	105.40767
422.222	105.4069
422.578	105.40674
422.934	105.40678
423.29	105.40699
423.646	105.40692
424.001	105.40636
424.357	105.40587
424.713	105.40644
425.068	105.40619
425.424	105.40623
425.779	105.40658
426.135	105.40728
426.49	105.40768
426.845	105.40819
427.201	105.40817
427.556	105.40826
427.911	105.40864
428.266	105.40772
428.622	105.40706
428.977	105.40707
429.332	105.40752
429.687	105.4074
430.042	105.40739
430.397	105.40674
430.752	105.40712
431.107	105.40736
431.461	105.40737
431.816	105.40711
432.171	105.40667
432.526	105.40655
432.88	105.40674
433.235	105.406
433.59	105.40619
433.944	105.40614
434.299	105.40664
434.653	105.4067
435.008	105.40731
435.362	105.40732
435.716	105.40823
436.071	105.40773
436.425	105.40794
436.779	105.40751
437.133	105.40795
437.487	105.40763
437.841	105.40815
438.195	105.40835
438.549	105.40864
438.903	105.40847
439.257	105.40877
439.611	105.40871
439.965	105.4083
440.319	105.40873
440.673	105.40857
441.026	105.40855
441.38	105.40865
441.734	105.40865
442.087	105.40834
442.441	105.40854
442.794	105.4077
443.148	105.40745
443.501	105.40747
443.855	105.40732
444.208	105.40698
444.561	105.40674
444.915	105.40701
445.268	105.40704
445.621	105.40667
445.974	105.40676
446.327	105.40643
446.68	105.40627
447.033	105.40707
447.386	105.407
447.739	105.40729
448.092	105.40767
448.445	105.40745
448.798	105.40747
449.15	105.40809
449.503	105.40769
449.856	105.40789
450.209	105.40816
450.561	105.40769
450.914	105.40825
451.266	105.40861
451.619	105.40823
451.971	105.40814
452.323	105.40796
452.676	105.40713
453.028	105.40792
453.38	105.40716
453.733	105.40698
454.085	105.40657
454.437	105.40685
454.789	105.40687
455.141	105.40764
455.493	105.40746
455.845	105.40797
456.197	105.4079
456.549	105.40804
456.901	105.40817
457.253	105.40814
457.604	105.40779
457.956	105.40716
458.308	105.40742
458.659	105.40771
459.011	105.40753
459.362	105.40712
459.714	105.40707
460.065	105.40707
460.417	105.40742
460.768	105.40716
461.12	105.40664
461.471	105.40718
461.822	105.40768
462.173	105.40787
462.525	105.40805
462.876	105.40801
463.227	105.40739
463.578	105.40779
463.929	105.40729
464.28	105.40656
464.631	105.4061
464.982	105.40636
465.332	105.40622
465.683	105.40658
466.034	105.40642
466.385	105.40643
466.735	105.4064
467.086	105.40647
467.437	105.40654
467.787	105.40655
468.138	105.40636
468.488	105.40683
468.839	105.40714
469.189	105.40709
469.539	105.40725
469.89	105.40682
470.24	105.40668
470.59	105.40686
470.94	105.40699
471.29	105.40662
471.64	105.40703
471.99	105.40736
472.34	105.40775
472.69	105.40751
473.04	105.40783
473.39	105.40771
473.74	105.40805
474.09	105.40796
474.439	105.40795
474.789	105.40768
475.139	105.40818
475.488	105.40785
475.838	105.40783
476.188	105.40771
476.537	105.4079
476.886	105.40768
477.236	105.40705
477.585	105.40704
477.935	105.4069
478.284	105.40677
478.633	105.40676
478.982	105.40675
479.331	105.40683
479.68	105.40727
480.03	105.4074
480.379	105.40772
480.728	105.40746
481.076	105.40756
481.425	105.4077
481.774	105.40751
482.123	105.40718
482.472	105.4072
482.821	105.40738
483.169	105.40765
483.518	105.4077
483.866	105.4076
484.215	105.40755
484.563	105.40785
484.912	105.40732
485.26	105.40698
485.609	105.40746
485.957	105.40753
486.305	105.40709
486.654	105.40736
487.002	105.40803
487.35	105.40832
487.698	105.40816
488.046	105.40727
488.394	105.40716
488.742	105.40743
489.09	105.40746
489.438	105.40709
489.786	105.40778
490.134	105.40794
490.482	105.40881
490.829	105.40832
491.177	105.40881
491.525	105.40871
491.872	105.40821
492.22	105.40788
492.567	105.4077
492.915	105.407
493.262	105.40733
493.61	105.40632
493.957	105.40678
494.304	105.40681
494.652	105.40714
494.999	105.40745
495.346	105.40738
495.693	105.40764
496.04	105.40854
496.387	105.40793
496.734	105.40827
497.081	105.40783
497.428	105.40772
497.775	105.40801
498.122	105.40794
498.469	105.40753
498.816	105.40803
499.162	105.4076
499.509	105.40751
499.856	105.40788
500.202	105.40797
500.549	105.4079
500.895	105.40779
501.242	105.40754
501.588	105.40783
501.935	105.40757
502.281	105.40739
502.627	105.40733
502.973	105.40694
503.32	105.40664
503.666	105.40655
504.012	105.40641
504.358	105.40631
504.704	105.40554
505.05	105.40563
505.396	105.40644
505.742	105.40683
506.088	105.40705
506.433	105.40718
506.779	105.40743
507.125	105.40766
507.471	105.40727
507.816	105.40683
508.162	105.40733
508.507	105.40757
508.853	105.40781
509.198	105.40762
509.544	105.40846
509.889	105.40883
510.234	105.40859
510.58	105.40833
510.925	105.40813
511.27	105.40809
511.615	105.40826
511.96	105.40742
512.306	105.40728
512.651	105.40712
512.996	105.4067
513.341	105.40645
513.685	105.40606
514.03	105.40655
514.375	105.40752
514.72	105.40772
515.065	105.40829
515.409	105.40836
515.754	105.40809
516.099	105.40864
516.443	105.40805
516.788	105.40742
517.132	105.40692
517.476	105.40653
517.821	105.40683
518.165	105.40692
518.51	105.4063
518.854	105.40666
519.198	105.40665
519.542	105.40724
519.886	105.40734
520.23	105.40704
520.574	105.40712
520.918	105.4074
521.262	105.40732
521.606	105.40712
521.95	105.40664
522.294	105.40661
522.638	105.40657
522.981	105.40657
523.325	105.40651
523.669	105.40683
524.012	105.40704
524.356	105.40705
524.699	105.40742
525.043	105.40727
525.386	105.40751
525.73	105.41044
526.073	105.40978
526.416	105.40972
526.76	105.41017
527.103	105.41013
527.446	105.41125
527.789	105.41126
528.132	105.40876
528.475	105.40967
528.818	105.4097
529.161	105.4092
529.504	105.40857
529.847	105.40777
530.19	105.40764
530.532	105.40712
530.875	105.40587
531.218	105.40581
531.56	105.40593
531.903	105.4067
532.246	105.40651
532.588	105.40635
532.93	105.40675
533.273	105.40744
533.615	105.40745
533.958	105.40762
534.3	105.40689
534.642	105.40776
534.984	105.40791
535.326	105.40747
535.669	105.40771
536.011	105.40779
536.353	105.40775
536.695	105.40836
537.037	105.40817
537.378	105.4079
537.72	105.40768
538.062	105.40709
538.404	105.40661
538.746	105.40662
539.087	105.40654
539.429	105.40637
539.77	105.40668
540.112	105.40718
540.454	105.4079
540.795	105.40825
541.136	105.40831
541.478	105.4084
541.819	105.408
542.16	105.40807
542.502	105.40793
542.843	105.40764
543.184	105.40794
543.525	105.40776
543.866	105.40715
544.207	105.40705
544.548	105.40695
544.889	105.40653
545.23	105.40639
545.571	105.40674
545.911	105.40667
546.252	105.40722
546.593	105.40752
546.934	105.40742
547.274	105.40796
547.615	105.40804
547.955	105.40773
548.296	105.40822
548.636	105.40816
548.977	105.40785
549.317	105.40852
549.657	105.40898
549.997	105.40934
550.338	105.40889
550.678	105.40861
551.018	105.40814
551.358	105.40856
551.698	105.40827
552.038	105.4077
552.378	105.40732
552.718	105.40815
553.058	105.40838
553.398	105.40912
553.737	105.40884
554.077	105.40898
554.417	105.40893
554.756	105.40918
555.096	105.40844
555.435	105.40852
555.775	105.40783
556.114	105.40793
556.454	105.40732
556.793	105.40756
557.133	105.40753
557.472	105.40739
557.811	105.40716
558.15	105.40746
558.489	105.4073
558.829	105.40768
559.168	105.40746
559.507	105.40733
559.846	105.40785
560.184	105.40782
560.523	105.40788
560.862	105.40842
