Data from 72h-ambient_CB-1e-4_Absorbance_09-26-57-877.txt Node
Date: Mon Aug 21 09:26:57 EDT 2023
User: UV-vis
Spectrometer: FLMS04918
Trigger mode: 0
Integration Time (sec): 1.000000E-1
Scans to average: 3
Electric dark correction enabled: true
Nonlinearity correction enabled: false
Boxcar width: 3
XAxis mode: Wavelengths
Number of Pixels in Spectrum: 2048
>>>>>Begin Spectral Data<<<<<
179.23	-0
179.611	-0
179.992	-0
180.373	-0
180.754	-0
181.134	-0
181.515	-0
181.896	-0
182.276	1.35393
182.657	0.44347
183.038	0.6041
183.418	0.10405
183.799	1.2121
184.179	0.95444
184.56	0.68407
184.94	0.44848
185.32	0.80908
185.701	-0
186.081	0.6105
186.461	-0
186.842	4.86363
187.222	2.15612
187.602	2.05259
187.982	2.01984
188.362	2.0162
188.742	2.03617
189.122	2.07471
189.502	2.0663
189.882	2.07424
190.262	2.09707
190.642	2.07906
191.022	2.05148
191.402	2.05441
191.781	2.0402
192.161	2.04717
192.541	2.04857
192.92	2.04188
193.3	2.03758
193.68	2.0642
194.059	2.07411
194.439	2.0778
194.818	2.02976
195.198	2.0247
195.577	2.03629
195.957	2.05974
196.336	2.08117
196.715	2.04939
197.094	2.02118
197.474	2.02325
197.853	2.01677
198.232	2.00745
198.611	1.99693
198.99	1.9959
199.369	2.00814
199.748	2.02547
200.127	2.05737
200.506	2.05854
200.885	2.06342
201.264	2.08695
201.643	2.06385
202.022	2.09646
202.401	2.1348
202.779	2.11935
203.158	2.13532
203.537	2.12344
203.915	2.10177
204.294	2.09708
204.673	2.06503
205.051	2.02619
205.43	2.04273
205.808	2.04588
206.187	2.03074
206.565	2.04706
206.943	2.06094
207.322	2.05987
207.7	2.06505
208.078	2.07531
208.456	2.06684
208.835	2.08061
209.213	2.06307
209.591	2.06033
209.969	2.05961
210.347	2.06033
210.725	2.0225
211.103	2.03492
211.481	2.05577
211.859	2.06887
212.237	2.0719
212.614	2.07241
212.992	2.0662
213.37	2.08747
213.748	2.06586
214.125	2.04183
214.503	2.04064
214.881	2.02998
215.258	2.03059
215.636	2.02856
216.013	2.02881
216.391	2.02709
216.768	2.04087
217.145	2.06197
217.523	2.05441
217.9	2.03039
218.277	2.05631
218.655	2.04837
219.032	2.07021
219.409	2.07543
219.786	2.06364
220.163	2.09241
220.54	2.1027
220.917	2.07555
221.294	2.09595
221.671	2.09056
222.048	2.10554
222.425	2.07487
222.802	2.05135
223.179	2.08289
223.556	2.08466
223.932	2.04775
224.309	2.05296
224.686	2.02989
225.062	2.01675
225.439	2.04097
225.815	2.02681
226.192	2.01685
226.568	2.02884
226.945	2.01593
227.321	2.02303
227.698	2.05624
228.074	2.03181
228.45	2.04577
228.827	2.06307
229.203	2.08901
229.579	2.10385
229.955	2.11562
230.331	2.09403
230.707	2.11356
231.083	2.11548
231.46	2.12446
231.835	2.09105
232.211	2.09074
232.587	2.08764
232.963	2.09977
233.339	2.12153
233.715	2.13134
234.091	2.09848
234.466	2.12427
234.842	2.13124
235.218	2.12405
235.593	2.13048
235.969	2.10487
236.344	2.07504
236.72	2.11844
237.095	2.10683
237.471	2.09915
237.846	2.11171
238.222	2.12014
238.597	2.09661
238.972	2.10764
239.348	2.08953
239.723	2.09423
240.098	2.06986
240.473	2.06099
240.848	2.05298
241.223	2.06923
241.598	2.07947
241.973	2.08143
242.348	2.09135
242.723	2.08809
243.098	2.06956
243.473	2.06177
243.848	2.07295
244.223	2.07222
244.597	2.08642
244.972	2.07732
245.347	2.08981
245.721	2.10973
246.096	2.12005
246.47	2.11926
246.845	2.12111
247.219	2.11367
247.594	2.14042
247.968	2.17237
248.343	2.18501
248.717	2.18494
249.091	2.19464
249.466	2.2042
249.84	2.18797
250.214	2.16925
250.588	2.1477
250.962	2.14707
251.336	2.13607
251.71	2.13584
252.084	2.13415
252.458	2.15869
252.832	2.17415
253.206	2.1754
253.58	2.14869
253.954	2.18057
254.328	2.18838
254.702	2.19268
255.075	2.16178
255.449	2.12498
255.823	2.13309
256.196	2.17481
256.57	2.1404
256.943	2.11847
257.317	2.10437
257.69	2.1131
258.064	2.10623
258.437	2.09133
258.81	2.07469
259.184	2.09891
259.557	2.1132
259.93	2.13893
260.303	2.13663
260.677	2.17814
261.05	2.18877
261.423	2.19282
261.796	2.16779
262.169	2.17866
262.542	2.1545
262.915	2.17379
263.288	2.14022
263.661	2.184
264.033	2.20533
264.406	2.2128
264.779	2.20729
265.152	2.22157
265.524	2.19905
265.897	2.22961
266.27	2.18575
266.642	2.18917
267.015	2.2256
267.387	2.23149
267.76	2.21943
268.132	2.23603
268.504	2.22532
268.877	2.21298
269.249	2.21096
269.621	2.20609
269.994	2.20079
270.366	2.21958
270.738	2.20188
271.11	2.21875
271.482	2.23025
271.854	2.22048
272.226	2.22611
272.598	2.23107
272.97	2.21885
273.342	2.23098
273.714	2.25374
274.086	2.26878
274.458	2.26166
274.829	2.22728
275.201	2.22194
275.573	2.22229
275.944	2.21258
276.316	2.20353
276.688	2.20621
277.059	2.21061
277.431	2.23081
277.802	2.24586
278.173	2.27179
278.545	2.29742
278.916	2.28378
279.287	2.28417
279.659	2.29201
280.03	2.30333
280.401	2.29875
280.772	2.30555
281.143	2.33608
281.515	2.36078
281.886	2.4076
282.257	2.43715
282.628	2.45164
282.998	2.48701
283.369	2.49526
283.74	2.4992
284.111	2.50081
284.482	2.4669
284.853	2.44387
285.223	2.43021
285.594	2.39385
285.965	2.34713
286.335	2.31483
286.706	2.26036
287.076	2.22519
287.447	2.18649
287.817	2.14328
288.188	2.10692
288.558	2.09596
288.928	2.06695
289.299	2.0572
289.669	2.04939
290.039	2.04966
290.409	2.04789
290.779	2.04585
291.149	2.03849
291.52	2.03501
291.89	2.02834
292.26	2.00904
292.629	1.98093
292.999	1.94766
293.369	1.90982
293.739	1.86109
294.109	1.81446
294.479	1.77076
294.848	1.72762
295.218	1.69031
295.588	1.65434
295.957	1.6245
296.327	1.59683
296.696	1.57159
297.066	1.5488
297.435	1.52686
297.805	1.50872
298.174	1.49114
298.544	1.47383
298.913	1.46143
299.282	1.44557
299.651	1.42729
300.021	1.41422
300.39	1.39643
300.759	1.38263
301.128	1.36952
301.497	1.3555
301.866	1.34527
302.235	1.33806
302.604	1.32891
302.973	1.32483
303.342	1.32061
303.71	1.31746
304.079	1.31568
304.448	1.31401
304.817	1.314
305.185	1.3148
305.554	1.31385
305.923	1.31432
306.291	1.31098
306.66	1.3078
307.028	1.30462
307.397	1.29773
307.765	1.28963
308.133	1.27815
308.502	1.26604
308.87	1.25533
309.238	1.2434
309.606	1.23271
309.975	1.22334
310.343	1.21703
310.711	1.21207
311.079	1.20803
311.447	1.20502
311.815	1.20301
312.183	1.20188
312.551	1.2009
312.919	1.20021
313.286	1.19984
313.654	1.19918
314.022	1.20108
314.39	1.20102
314.757	1.2018
315.125	1.20231
315.492	1.20344
315.86	1.20556
316.228	1.2082
316.595	1.21127
316.962	1.21526
317.33	1.21754
317.697	1.21807
318.065	1.21767
318.432	1.21608
318.799	1.21084
319.166	1.20306
319.534	1.19594
319.901	1.18729
320.268	1.18125
320.635	1.17236
321.002	1.16482
321.369	1.15793
321.736	1.15104
322.103	1.14325
322.47	1.1381
322.836	1.13412
323.203	1.13395
323.57	1.13302
323.937	1.13418
324.303	1.13569
324.67	1.13904
325.037	1.13851
325.403	1.13756
325.77	1.13394
326.136	1.13065
326.503	1.1265
326.869	1.12063
327.235	1.11643
327.602	1.11282
327.968	1.10899
328.334	1.10308
328.7	1.09841
329.067	1.09447
329.433	1.09219
329.799	1.08645
330.165	1.08409
330.531	1.08146
330.897	1.0811
331.263	1.08172
331.629	1.08139
331.995	1.08033
332.36	1.0803
332.726	1.07873
333.092	1.07927
333.458	1.07821
333.823	1.07789
334.189	1.07852
334.554	1.07881
334.92	1.07897
335.286	1.07913
335.651	1.07716
336.016	1.07881
336.382	1.07594
336.747	1.07247
337.113	1.07145
337.478	1.07024
337.843	1.07032
338.208	1.06903
338.573	1.06764
338.939	1.06815
339.304	1.06871
339.669	1.06661
340.034	1.06551
340.399	1.06382
340.764	1.06395
341.129	1.06181
341.493	1.06161
341.858	1.06122
342.223	1.06373
342.588	1.0649
342.952	1.06686
343.317	1.06789
343.682	1.0702
344.046	1.07021
344.411	1.07189
344.775	1.07245
345.14	1.07377
345.504	1.07499
345.869	1.07707
346.233	1.07694
346.597	1.07731
346.962	1.07778
347.326	1.07784
347.69	1.07719
348.054	1.07649
348.418	1.07525
348.782	1.07604
349.146	1.07554
349.51	1.07436
349.874	1.07281
350.238	1.07104
350.602	1.0684
350.966	1.06436
351.33	1.0606
351.693	1.05642
352.057	1.05263
352.421	1.05002
352.784	1.04741
353.148	1.04449
353.512	1.04413
353.875	1.04305
354.239	1.04344
354.602	1.04263
354.966	1.04135
355.329	1.043
355.692	1.04518
356.056	1.04594
356.419	1.04696
356.782	1.04833
357.145	1.05082
357.508	1.05202
357.871	1.05292
358.234	1.05297
358.597	1.05397
358.96	1.05568
359.323	1.05828
359.686	1.05856
360.049	1.061
360.412	1.062
360.775	1.0636
361.137	1.06498
361.5	1.06495
361.863	1.06536
362.225	1.06775
362.588	1.06841
362.951	1.06871
363.313	1.06834
363.675	1.06649
364.038	1.0658
364.4	1.06307
364.763	1.05974
365.125	1.05635
365.487	1.05301
365.849	1.04893
366.212	1.04526
366.574	1.04158
366.936	1.03882
367.298	1.03757
367.66	1.03677
368.022	1.03705
368.384	1.03945
368.746	1.04275
369.108	1.04454
369.469	1.04774
369.831	1.04973
370.193	1.05178
370.555	1.05282
370.916	1.05291
371.278	1.05337
371.64	1.05259
372.001	1.05014
372.363	1.04754
372.724	1.04327
373.086	1.0398
373.447	1.03592
373.808	1.0316
374.17	1.02808
374.531	1.02562
374.892	1.02271
375.253	1.02307
375.615	1.02233
375.976	1.02127
376.337	1.02032
376.698	1.02005
377.059	1.01846
377.42	1.01668
377.781	1.01295
378.141	1.01111
378.502	1.00907
378.863	1.00852
379.224	1.00896
379.585	1.01
379.945	1.01216
380.306	1.016
380.666	1.01911
381.027	1.0218
381.388	1.02354
381.748	1.02391
382.108	1.02373
382.469	1.02381
382.829	1.02435
383.19	1.0242
383.55	1.02568
383.91	1.02458
384.27	1.02602
384.63	1.02612
384.991	1.02566
385.351	1.023
385.711	1.02003
386.071	1.01534
386.431	1.01165
386.791	1.00439
387.15	0.9988
387.51	0.99218
387.87	0.98778
388.23	0.98461
388.589	0.98274
388.949	0.98103
389.309	0.9819
389.668	0.98181
390.028	0.98362
390.387	0.98201
390.747	0.97877
391.106	0.97382
391.466	0.96741
391.825	0.96316
392.184	0.96013
392.544	0.95609
392.903	0.95483
393.262	0.9567
393.621	0.96107
393.98	0.96853
394.339	0.97437
394.698	0.98064
395.057	0.98849
395.416	0.99552
395.775	0.99939
396.134	1.00118
396.493	1.00121
396.852	1.00023
397.211	0.99898
397.569	0.99664
397.928	0.99546
398.287	0.99588
398.645	0.99789
399.004	1.00323
399.362	1.00963
399.721	1.01483
400.079	1.02343
400.438	1.03015
400.796	1.03768
401.154	1.04269
401.512	1.04686
401.871	1.04847
402.229	1.05323
402.587	1.05211
402.945	1.05046
403.303	1.04535
403.661	1.04219
404.019	1.03625
404.377	1.03141
404.735	1.02418
405.093	1.01971
405.451	1.01782
405.808	1.01752
406.166	1.01868
406.524	1.02054
406.882	1.02193
407.239	1.02054
407.597	1.01758
407.954	1.013
408.312	1.00902
408.669	1.00426
409.027	0.99906
409.384	0.9959
409.741	0.99534
410.099	0.99601
410.456	0.997
410.813	0.99636
411.17	0.99462
411.527	0.9929
411.884	0.9911
412.242	0.98855
412.599	0.98579
412.956	0.983
413.312	0.98354
413.669	0.98582
414.026	0.98918
414.383	0.99154
414.74	0.99645
415.096	1.00141
415.453	1.00628
415.81	1.01054
416.166	1.01563
416.523	1.02027
416.879	1.02599
417.236	1.03056
417.592	1.03443
417.949	1.03899
418.305	1.04264
418.661	1.04666
419.018	1.04922
419.374	1.05053
419.73	1.05154
420.086	1.05218
420.442	1.05219
420.798	1.05254
421.154	1.05319
421.51	1.05812
421.866	1.06612
422.222	1.0767
422.578	1.09088
422.934	1.11054
423.29	1.13153
423.646	1.15345
424.001	1.17649
424.357	1.19992
424.713	1.22367
425.068	1.2508
425.424	1.27304
425.779	1.29561
426.135	1.31772
426.49	1.33874
426.845	1.35861
427.201	1.3774
427.556	1.39019
427.911	1.40581
428.266	1.41655
428.622	1.42431
428.977	1.42598
429.332	1.42741
429.687	1.42627
430.042	1.42858
430.397	1.42931
430.752	1.43214
431.107	1.436
431.461	1.4446
431.816	1.44893
432.171	1.45073
432.526	1.44614
432.88	1.44133
433.235	1.43812
433.59	1.43323
433.944	1.42505
434.299	1.41941
434.653	1.41553
435.008	1.41226
435.362	1.40962
435.716	1.4073
436.071	1.40347
436.425	1.40402
436.779	1.40687
437.133	1.41169
437.487	1.41749
437.841	1.42345
438.195	1.42724
438.549	1.43623
438.903	1.44437
439.257	1.44913
439.611	1.4532
439.965	1.4601
440.319	1.46428
440.673	1.47228
441.026	1.47604
441.38	1.48157
441.734	1.48617
442.087	1.49095
442.441	1.4924
442.794	1.49787
443.148	1.49886
443.501	1.50213
443.855	1.49929
444.208	1.49836
444.561	1.49828
444.915	1.49639
445.268	1.49004
445.621	1.48635
445.974	1.48505
446.327	1.47968
446.68	1.47187
447.033	1.46697
447.386	1.46036
447.739	1.45428
448.092	1.44617
448.445	1.43664
448.798	1.43206
449.15	1.42784
449.503	1.42009
449.856	1.41757
450.209	1.41284
450.561	1.41103
450.914	1.40543
451.266	1.40137
451.619	1.39888
451.971	1.3979
452.323	1.39537
452.676	1.39496
453.028	1.39367
453.38	1.39477
453.733	1.39457
454.085	1.39531
454.437	1.39477
454.789	1.39629
455.141	1.39766
455.493	1.39902
455.845	1.40055
456.197	1.40027
456.549	1.39895
456.901	1.40164
457.253	1.40171
457.604	1.40284
457.956	1.40358
458.308	1.40086
458.659	1.40147
459.011	1.40449
459.362	1.40215
459.714	1.39993
460.065	1.39973
460.417	1.39949
460.768	1.40083
461.12	1.40427
461.471	1.40133
461.822	1.39995
462.173	1.40169
462.525	1.39924
462.876	1.39897
463.227	1.39993
463.578	1.39538
463.929	1.39666
464.28	1.39589
464.631	1.39491
464.982	1.39266
465.332	1.39084
465.683	1.38868
466.034	1.38712
466.385	1.3858
466.735	1.38684
467.086	1.38456
467.437	1.38561
467.787	1.38363
468.138	1.38152
468.488	1.3819
468.839	1.37944
469.189	1.37544
469.539	1.37403
469.89	1.37084
470.24	1.36827
470.59	1.36584
470.94	1.36505
471.29	1.36442
471.64	1.36291
471.99	1.36014
472.34	1.3586
472.69	1.35746
473.04	1.3571
473.39	1.35355
473.74	1.34733
474.09	1.34452
474.439	1.34288
474.789	1.34022
475.139	1.33411
475.488	1.33076
475.838	1.3275
476.188	1.32718
476.537	1.32376
476.886	1.31999
477.236	1.31653
477.585	1.31634
477.935	1.31213
478.284	1.30944
478.633	1.30426
478.982	1.30015
479.331	1.29453
479.68	1.29087
480.03	1.28413
480.379	1.27779
480.728	1.27199
481.076	1.26628
481.425	1.26209
481.774	1.25805
482.123	1.25284
482.472	1.24947
482.821	1.2459
483.169	1.24092
483.518	1.23871
483.866	1.23379
484.215	1.22922
484.563	1.22474
484.912	1.21939
485.26	1.21621
485.609	1.21242
485.957	1.20881
486.305	1.2067
486.654	1.20525
487.002	1.20348
487.35	1.20249
487.698	1.19981
488.046	1.19864
488.394	1.19612
488.742	1.19588
489.09	1.1931
489.438	1.19294
489.786	1.19215
490.134	1.193
490.482	1.19218
490.829	1.19244
491.177	1.1912
491.525	1.19247
491.872	1.19265
492.22	1.19174
492.567	1.18989
492.915	1.18862
493.262	1.18804
493.61	1.18723
493.957	1.18594
494.304	1.18429
494.652	1.18515
494.999	1.18516
495.346	1.18572
495.693	1.18632
496.04	1.18598
496.387	1.18595
496.734	1.18542
497.081	1.1849
497.428	1.1865
497.775	1.18608
498.122	1.18297
498.469	1.18166
498.816	1.18132
499.162	1.18022
499.509	1.17861
499.856	1.17546
500.202	1.17336
500.549	1.17283
500.895	1.17233
501.242	1.16968
501.588	1.16807
501.935	1.16438
502.281	1.16158
502.627	1.15979
502.973	1.15637
503.32	1.1525
503.666	1.15046
504.012	1.14771
504.358	1.1472
504.704	1.14565
505.05	1.14224
505.396	1.14057
505.742	1.13888
506.088	1.13664
506.433	1.13304
506.779	1.12937
507.125	1.12481
507.471	1.12101
507.816	1.11723
508.162	1.11373
508.507	1.11002
508.853	1.10723
509.198	1.10421
509.544	1.10283
509.889	1.10123
510.234	1.09786
510.58	1.09594
510.925	1.09449
511.27	1.09164
511.615	1.08888
511.96	1.085
512.306	1.08222
512.651	1.07919
512.996	1.07517
513.341	1.06896
513.685	1.06494
514.03	1.06314
514.375	1.05932
514.72	1.05495
515.065	1.05236
515.409	1.04959
515.754	1.04802
516.099	1.04551
516.443	1.03985
516.788	1.03556
517.132	1.03149
517.476	1.02808
517.821	1.0233
518.165	1.01775
518.51	1.01392
518.854	1.0101
519.198	1.0077
519.542	1.00547
519.886	1.00247
520.23	0.99942
520.574	0.99659
520.918	0.99345
521.262	0.99077
521.606	0.98835
521.95	0.98469
522.294	0.98149
522.638	0.97879
522.981	0.9777
523.325	0.97555
523.669	0.97393
524.012	0.97192
524.356	0.97045
524.699	0.96848
525.043	0.96679
525.386	0.96337
525.73	0.96043
526.073	0.95746
526.416	0.95502
526.76	0.95376
527.103	0.95266
527.446	0.95151
527.789	0.95053
528.132	0.94949
528.475	0.94912
528.818	0.94755
529.161	0.9466
529.504	0.94564
529.847	0.9455
530.19	0.9455
530.532	0.94493
530.875	0.94383
531.218	0.9423
531.56	0.94171
531.903	0.94097
532.246	0.93982
532.588	0.93769
532.93	0.93773
533.273	0.9374
533.615	0.93865
533.958	0.93836
534.3	0.9374
534.642	0.93655
534.984	0.93823
535.326	0.93766
535.669	0.9386
536.011	0.9395
536.353	0.93934
536.695	0.93971
537.037	0.94061
537.378	0.94062
537.72	0.94147
538.062	0.94134
538.404	0.94177
538.746	0.94256
539.087	0.94301
539.429	0.94353
539.77	0.94463
540.112	0.94525
540.454	0.94581
540.795	0.94539
541.136	0.94474
541.478	0.94585
541.819	0.94573
542.16	0.94488
542.502	0.9457
542.843	0.94584
543.184	0.94642
543.525	0.94681
543.866	0.94684
544.207	0.94718
544.548	0.94726
544.889	0.94538
545.23	0.94489
545.571	0.94379
545.911	0.9444
546.252	0.94409
546.593	0.94336
546.934	0.94322
547.274	0.94417
547.615	0.94396
547.955	0.94415
548.296	0.94399
548.636	0.94305
548.977	0.94254
549.317	0.94119
549.657	0.93968
549.997	0.93841
550.338	0.93632
550.678	0.93431
551.018	0.93258
551.358	0.93064
551.698	0.92941
552.038	0.92766
552.378	0.9258
552.718	0.92555
553.058	0.92376
553.398	0.92217
553.737	0.92032
554.077	0.92024
554.417	0.91871
554.756	0.91681
555.096	0.91382
555.435	0.91147
555.775	0.90956
556.114	0.90853
556.454	0.90474
556.793	0.90244
557.133	0.89953
557.472	0.89587
557.811	0.89327
558.15	0.88959
558.489	0.8864
558.829	0.8841
559.168	0.88075
559.507	0.87783
559.846	0.87661
560.184	0.87394
560.523	0.87263
560.862	0.87026
561.201	0.86734
561.54	0.86472
561.878	0.86293
562.217	0.85999
562.556	0.85787
562.894	0.85549
563.233	0.8523
563.571	0.84858
563.91	0.84657
564.248	0.84335
564.586	0.8407
564.925	0.83753
565.263	0.83447
565.601	0.83224
565.939	0.83078
566.277	0.82841
566.616	0.82609
566.954	0.82371
567.292	0.82191
567.63	0.81911
567.967	0.8173
568.305	0.81511
568.643	0.81276
568.981	0.81076
569.319	0.80856
569.656	0.80619
569.994	0.80411
570.331	0.80217
570.669	0.79968
571.006	0.79772
571.344	0.79587
571.681	0.79392
572.019	0.79095
572.356	0.78959
572.693	0.78786
573.03	0.78661
573.368	0.78581
573.705	0.78365
574.042	0.78246
574.379	0.7822
574.716	0.78057
575.053	0.77878
575.39	0.77752
575.727	0.77514
576.063	0.77409
576.4	0.77286
576.737	0.7716
577.074	0.77069
577.41	0.76819
577.747	0.76648
578.083	0.76479
578.42	0.76411
578.756	0.76351
579.093	0.76233
579.429	0.7613
579.766	0.76079
580.102	0.7599
580.438	0.75986
580.774	0.7585
581.11	0.75783
581.446	0.75721
581.782	0.75655
582.119	0.75626
582.454	0.75525
582.79	0.7552
583.126	0.75675
583.462	0.75551
583.798	0.75429
584.134	0.75346
584.469	0.75379
584.805	0.75433
585.141	0.75369
585.476	0.75217
585.812	0.75213
586.147	0.75209
586.482	0.75233
586.818	0.75168
587.153	0.75192
587.488	0.75162
587.824	0.75126
588.159	0.75072
588.494	0.75058
588.829	0.7509
589.164	0.75095
589.499	0.7499
589.834	0.74986
590.169	0.74965
590.504	0.75027
590.839	0.75074
591.174	0.74954
591.508	0.74965
591.843	0.75037
592.178	0.75105
592.512	0.75066
592.847	0.75066
593.181	0.75033
593.516	0.75055
593.85	0.75037
594.185	0.74962
594.519	0.74897
594.853	0.74912
595.187	0.74825
595.522	0.74834
595.856	0.74816
596.19	0.74818
596.524	0.74911
596.858	0.74883
597.192	0.75003
597.526	0.75072
597.86	0.75077
598.194	0.75051
598.527	0.74982
598.861	0.7488
599.195	0.749
