Data from oven-75C-5d_empty_Absorbance_08-43-40-697.txt Node
Date: Tue Aug 29 08:43:40 EDT 2023
User: UV-vis
Spectrometer: FLMS04918
Trigger mode: 0
Integration Time (sec): 1.000000E-1
Scans to average: 3
Electric dark correction enabled: true
Nonlinearity correction enabled: false
Boxcar width: 3
XAxis mode: Wavelengths
Number of Pixels in Spectrum: 2048
>>>>>Begin Spectral Data<<<<<
179.23	0.14771
179.611	0.00866
179.992	-0.02627
180.373	-0.02086
180.754	-0.13765
181.134	-0.23136
181.515	-0.78591
181.896	-1.58495
182.276	-0.55719
182.657	-0.53102
183.038	-0.63483
183.418	-0.57461
183.799	-0.20381
184.179	-0.07602
184.56	-0
184.94	0.22605
185.32	-0.23309
185.701	-0.82754
186.081	-0
186.461	-0
186.842	-0.04929
187.222	-0.00966
187.602	-0.00464
187.982	-0.00288
188.362	-0.00166
188.742	-0.00075
189.122	-0.00023
189.502	-0.00113
189.882	-0.00181
190.262	-0.00129
190.642	-0.00187
191.022	-0.00174
191.402	-0.00214
191.781	-0.00214
192.161	-0.00161
192.541	-0.00019
192.92	-0.00058
193.3	-0.00041
193.68	0.00049
194.059	0.0005
194.439	0.00096
194.818	0.00209
195.198	0.00136
195.577	0.00164
195.957	0.00243
196.336	0.00254
196.715	0.0034
197.094	0.00273
197.474	0.00244
197.853	0.00181
198.232	0.00096
198.611	0.00032
198.99	0.00089
199.369	0.0002
199.748	-0.0003
200.127	-0.00088
200.506	-0.00084
200.885	-0.0013
201.264	-0.00105
201.643	-0.00193
202.022	-0.00088
202.401	0.00068
202.779	0.00114
203.158	0.00178
203.537	0.0029
203.915	0.0031
204.294	0.00274
204.673	0.00202
205.051	0.00145
205.43	0.00065
205.808	-0.00025
206.187	-0.00116
206.565	-0.00133
206.943	-0.00154
207.322	-0.00194
207.7	-0.00288
208.078	-0.00197
208.456	-0.00049
208.835	0.00026
209.213	0.00091
209.591	0.00055
209.969	0.00138
210.347	0.00102
210.725	0.00068
211.103	-0.0006
211.481	-0.00074
211.859	-0.00121
212.237	-0.00045
212.614	-0.00149
212.992	-0.00127
213.37	-0.00096
213.748	-0.00099
214.125	-0.00143
214.503	-0.00171
214.881	-0.00209
215.258	-0.00208
215.636	-0.00094
216.013	-0.00027
216.391	0.00041
216.768	0.00064
217.145	0.00057
217.523	0.00103
217.9	0.00162
218.277	0.00236
218.655	0.00179
219.032	0.00207
219.409	0.00272
219.786	0.00258
220.163	0.00191
220.54	0.00226
220.917	0.00068
221.294	-0.00008
221.671	-0.00059
222.048	-0.00129
222.425	-0.00052
222.802	-0.00026
223.179	-0.00101
223.556	-0.00014
223.932	0.00127
224.309	0.00129
224.686	0.00169
225.062	0.00179
225.439	0.00176
225.815	0.00264
226.192	0.00199
226.568	0.00114
226.945	0.00235
227.321	0.00222
227.698	0.00134
228.074	0.00166
228.45	0.00088
228.827	0.00059
229.203	0.00091
229.579	-0.00057
229.955	-0.00018
230.331	-0
230.707	0.00029
231.083	0.00059
231.46	0.00145
231.835	0.00202
232.211	0.00195
232.587	0.00092
232.963	0.00177
233.339	0.00242
233.715	0.00265
234.091	0.00182
234.466	0.0016
234.842	0.00202
235.218	0.00268
235.593	0.00204
235.969	0.00141
236.344	0.00058
236.72	0.00077
237.095	-0.00078
237.471	-0.0013
237.846	-0.00206
238.222	-0.00226
238.597	-0.00316
238.972	-0.00284
239.348	-0.00217
239.723	-0.0014
240.098	-0.00137
240.473	0.00007
240.848	-0.00024
241.223	-0.00103
241.598	-0.00102
241.973	-0.00167
242.348	-0.00133
242.723	-0.00069
243.098	-0.00145
243.473	-0.0017
243.848	-0.00079
244.223	-0.00013
244.597	0.00037
244.972	-0.00008
245.347	0.0001
245.721	-0.00039
246.096	0.00036
246.47	0.00036
246.845	-0.0001
247.219	-0.0004
247.594	-0.0008
247.968	-0.00058
248.343	0.0006
248.717	0.0003
249.091	0.00047
249.466	0.00061
249.84	0.00059
250.214	0.00136
250.588	0.00002
250.962	0.00011
251.336	-0.00006
251.71	0.00056
252.084	0.00126
252.458	0.00071
252.832	-0.00027
253.206	0.00087
253.58	0.00114
253.954	0.00182
254.328	0.00096
254.702	0.0005
255.075	0.00004
255.449	0.00002
255.823	-0.00057
256.196	-0.00188
256.57	-0.00175
256.943	-0.00156
257.317	-0.00175
257.69	-0.00088
258.064	-0.00015
258.437	0.00019
258.81	-0.00013
259.184	-0.00029
259.557	0.00002
259.93	-0.00016
260.303	-0.00016
260.677	-0.00099
261.05	-0.00086
261.423	0.00053
261.796	0.00072
262.169	0.00025
262.542	-0.00031
262.915	-0.00087
263.288	-0.00055
263.661	-0.00133
264.033	-0.00227
264.406	-0.00343
264.779	-0.00321
265.152	-0.00265
265.524	-0.00242
265.897	-0.00185
266.27	-0.00104
266.642	0.00003
267.015	0.00028
267.387	0.00034
267.76	-0.00056
268.132	-0.00023
268.504	-0.0011
268.877	-0.00118
269.249	-0.00145
269.621	-0.00012
269.994	0.00023
270.366	0.00133
270.738	0.00098
271.11	0.00182
271.482	0.0019
271.854	0.00118
272.226	0.00037
272.598	0.00043
272.97	0.00018
273.342	0.00048
273.714	0.00112
274.086	0.00063
274.458	0.00107
274.829	0.00068
275.201	0.00114
275.573	0.00105
275.944	0.00151
276.316	0.00087
276.688	0.00134
277.059	0.00183
277.431	0.00126
277.802	-0.0004
278.173	0.0005
278.545	-0.00041
278.916	-0.00032
279.287	-0.00047
279.659	-0.0011
280.03	-0.00081
280.401	-0.00034
280.772	-0.00137
281.143	-0.00091
281.515	-0.00149
281.886	-0.00216
282.257	-0.00206
282.628	-0.00183
282.998	-0.00166
283.369	-0.00134
283.74	-0.00127
284.111	-0.00088
284.482	-0.00038
284.853	-0.00038
285.223	-0.00022
285.594	-0.00011
285.965	-0.00011
286.335	-0.00011
286.706	-0.00011
287.076	-0.00011
287.447	-0.00011
287.817	-0.00011
288.188	-0.00011
288.558	-0.00011
288.928	-0.00011
289.299	-0.00011
289.669	-0.00011
290.039	-0.00011
290.409	-0.00011
290.779	-0.00011
291.149	-0.00011
291.52	-0.00011
291.89	-0.00011
292.26	-0.00011
292.629	-0.00011
292.999	-0.00011
293.369	-0.00011
293.739	-0.00011
294.109	-0.00011
294.479	-0.00011
294.848	-0.00011
295.218	-0.00011
295.588	-0.00011
295.957	-0.00011
296.327	-0.00011
296.696	-0.00011
297.066	-0.00011
297.435	-0.00011
297.805	-0.00011
298.174	-0.00011
298.544	-0.00011
298.913	-0.00011
299.282	-0.00011
299.651	-0.00011
300.021	-0.00011
300.39	-0.00011
300.759	-0.00011
301.128	-0.00011
301.497	-0.00011
301.866	-0.00011
302.235	-0.00011
302.604	-0.00011
302.973	-0.00011
303.342	-0.00011
303.71	-0.00011
304.079	-0.00011
304.448	-0.00011
304.817	-0.00011
305.185	-0.00011
305.554	-0.00011
305.923	-0.00011
306.291	-0.00011
306.66	-0.00011
307.028	-0.00011
307.397	-0.00011
307.765	-0.00011
308.133	-0.00011
308.502	-0.00011
308.87	-0.00011
309.238	-0.00011
309.606	-0.00011
309.975	-0.00011
310.343	-0.00011
310.711	-0.00011
311.079	-0.00011
311.447	-0.00011
311.815	-0.00011
312.183	-0.00011
312.551	-0.00011
312.919	-0.00011
313.286	-0.00011
313.654	-0.00011
314.022	-0.00011
314.39	-0.00011
314.757	-0.00011
315.125	-0.00011
315.492	-0.00011
315.86	-0.00011
316.228	-0.00011
316.595	-0.00011
316.962	-0.00011
317.33	-0.00011
317.697	-0.00011
318.065	-0.00011
318.432	-0.00011
318.799	-0.00011
319.166	-0.00011
319.534	-0.00011
319.901	-0.00011
320.268	-0.00011
320.635	-0.00011
321.002	-0.00011
321.369	-0.00011
321.736	-0.00011
322.103	-0.00011
322.47	-0.00011
322.836	-0.00011
323.203	-0.00011
323.57	-0.00011
323.937	-0.00011
324.303	-0.00011
324.67	-0.00011
325.037	-0.00011
325.403	-0.00011
325.77	-0.00011
326.136	-0.00011
326.503	-0.00011
326.869	-0.00011
327.235	-0.00011
327.602	-0.00011
327.968	-0.00011
328.334	-0.00011
328.7	-0.00011
329.067	-0.00011
329.433	-0.00011
329.799	-0.00011
330.165	-0.00011
330.531	-0.00011
330.897	-0.00011
331.263	-0.00011
331.629	-0.00011
331.995	-0.00011
332.36	-0.00011
332.726	-0.00011
333.092	-0.00011
333.458	-0.00011
333.823	-0.00011
334.189	-0.00011
334.554	-0.00011
334.92	-0.00011
335.286	-0.00011
335.651	-0.00011
336.016	-0.00011
336.382	-0.00011
336.747	-0.00011
337.113	-0.00011
337.478	-0.00011
337.843	-0.00011
338.208	-0.00011
338.573	-0.00011
338.939	-0.00011
339.304	-0.00011
339.669	-0.00011
340.034	-0.00011
340.399	-0.00011
340.764	-0.00011
341.129	-0.00011
341.493	-0.00011
341.858	-0.00011
342.223	-0.00011
342.588	-0.00011
342.952	-0.00011
343.317	-0.00011
343.682	-0.00011
344.046	-0.00011
344.411	-0.00011
344.775	-0.00011
345.14	-0.00011
345.504	-0.00011
345.869	-0.00011
346.233	-0.00011
346.597	-0.00011
346.962	-0.00011
347.326	-0.00011
347.69	-0.00011
348.054	-0.00011
348.418	-0.00011
348.782	-0.00011
349.146	-0.00011
349.51	-0.00011
349.874	-0.00011
350.238	-0.00011
350.602	-0.00011
350.966	-0.00011
351.33	-0.00011
351.693	-0.00011
352.057	-0.00011
352.421	-0.00011
352.784	-0.00011
353.148	-0.00011
353.512	-0.00011
353.875	-0.00011
354.239	-0.00011
354.602	-0.00011
354.966	-0.00011
355.329	-0.00011
355.692	-0.00011
356.056	-0.00011
356.419	-0.00011
356.782	-0.00011
357.145	-0.00011
357.508	-0.00011
357.871	-0.00011
358.234	-0.00011
358.597	-0.00011
358.96	-0.00011
359.323	-0.00011
359.686	-0.00011
360.049	-0.00011
360.412	-0.00011
360.775	-0.00011
361.137	-0.00011
361.5	-0.00011
361.863	-0.00011
362.225	-0.00011
362.588	-0.00011
362.951	-0.00011
363.313	-0.00011
363.675	-0.00011
364.038	-0.00011
364.4	-0.00011
364.763	-0.00011
365.125	-0.00011
365.487	-0.00011
365.849	-0.00011
366.212	-0.00011
366.574	-0.00011
366.936	-0.00011
367.298	-0.00011
367.66	-0.00011
368.022	-0.00011
368.384	-0.00011
368.746	-0.00011
369.108	-0.00011
369.469	-0.00011
369.831	-0.00011
370.193	-0.00011
370.555	-0.00011
370.916	-0.00011
371.278	-0.00011
371.64	-0.00011
372.001	-0.00011
372.363	-0.00011
372.724	-0.00011
373.086	-0.00011
373.447	-0.00011
373.808	-0.00011
374.17	-0.00011
374.531	-0.00011
374.892	-0.00011
375.253	-0.00011
375.615	-0.00011
375.976	-0.00011
376.337	-0.00011
376.698	-0.00011
377.059	-0.00011
377.42	-0.00011
377.781	-0.00011
378.141	-0.00011
378.502	-0.00011
378.863	-0.00011
379.224	-0.00011
379.585	-0.00011
379.945	-0.00011
380.306	-0.00011
380.666	-0.00011
381.027	-0.00011
381.388	-0.00011
381.748	-0.00011
382.108	-0.00011
382.469	-0.00011
382.829	-0.00011
383.19	-0.00011
383.55	-0.00011
383.91	-0.00011
384.27	-0.00011
384.63	-0.00011
384.991	-0.00011
385.351	-0.00011
385.711	-0.00011
386.071	-0.00011
386.431	-0.00011
386.791	-0.00011
387.15	-0.00011
387.51	-0.00011
387.87	-0.00011
388.23	-0.00011
388.589	-0.00011
388.949	-0.00011
389.309	-0.00011
389.668	-0.00011
390.028	-0.00011
390.387	-0.00011
390.747	-0.00011
391.106	-0.00011
391.466	-0.00011
391.825	-0.00011
392.184	-0.00011
392.544	-0.00011
392.903	-0.00011
393.262	-0.00011
393.621	-0.00011
393.98	-0.00011
394.339	-0.00011
394.698	-0.00011
395.057	-0.00011
395.416	-0.00011
395.775	-0.00011
396.134	-0.00011
396.493	-0.00011
396.852	-0.00011
397.211	-0.00011
397.569	-0.00011
397.928	-0.00011
398.287	-0.00011
398.645	-0.00011
399.004	-0.00011
399.362	-0.00011
399.721	-0.00011
400.079	-0.00011
400.438	-0.00011
400.796	-0.00011
401.154	-0.00011
401.512	-0.00011
401.871	-0.00011
402.229	-0.00011
402.587	-0.00011
402.945	-0.00011
403.303	-0.00011
403.661	-0.00011
404.019	-0.00011
404.377	-0.00011
404.735	-0.00011
405.093	-0.00011
405.451	-0.00011
405.808	-0.00011
406.166	-0.00011
406.524	-0.00011
406.882	-0.00011
407.239	-0.00011
407.597	-0.00011
407.954	-0.00011
408.312	-0.00011
408.669	-0.00011
409.027	-0.00011
409.384	-0.00011
409.741	-0.00011
410.099	-0.00011
410.456	-0.00011
410.813	-0.00011
411.17	-0.00011
411.527	-0.00011
411.884	-0.00011
412.242	-0.00011
412.599	-0.00011
412.956	-0.00011
413.312	-0.00011
413.669	-0.00011
414.026	-0.00011
414.383	-0.00011
414.74	-0.00011
415.096	-0.00011
415.453	-0.00011
415.81	-0.00011
416.166	-0.00011
416.523	-0.00011
416.879	-0.00011
417.236	-0.00011
417.592	-0.00011
417.949	-0.00011
418.305	-0.00011
418.661	-0.00011
419.018	-0.00011
419.374	-0.00011
419.73	-0.00011
420.086	-0.00011
420.442	-0.00011
420.798	-0.00011
421.154	-0.00011
421.51	-0.00011
421.866	-0.00011
422.222	-0.00011
422.578	-0.00011
422.934	-0.00011
423.29	-0.00011
423.646	-0.00011
424.001	-0.00011
424.357	-0.00011
424.713	-0.00011
425.068	-0.00011
425.424	-0.00011
425.779	-0.00011
426.135	-0.00011
426.49	-0.00011
426.845	-0.00011
427.201	-0.00011
427.556	-0.00011
427.911	-0.00011
428.266	-0.00011
428.622	-0.00011
428.977	-0.00011
429.332	-0.00011
429.687	-0.00011
430.042	-0.00011
430.397	-0.00011
430.752	-0.00011
431.107	-0.00011
431.461	-0.00011
431.816	-0.00011
432.171	-0.00011
432.526	-0.00011
432.88	-0.00011
433.235	-0.00011
433.59	-0.00011
433.944	-0.00011
434.299	-0.00011
434.653	-0.00011
435.008	-0.00011
435.362	-0.00011
435.716	-0.00011
436.071	-0.00011
436.425	-0.00011
436.779	-0.00011
437.133	-0.00011
437.487	-0.00011
437.841	-0.00011
438.195	-0.00011
438.549	-0.00011
438.903	-0.00011
439.257	-0.00011
439.611	-0.00011
439.965	-0.00011
440.319	-0.00011
440.673	-0.00011
441.026	-0.00011
441.38	-0.00011
441.734	-0.00011
442.087	-0.00011
442.441	-0.00011
442.794	-0.00011
443.148	-0.00011
443.501	-0.00011
443.855	-0.00011
444.208	-0.00011
444.561	-0.00011
444.915	-0.00011
445.268	-0.00011
445.621	-0.00011
445.974	-0.00011
446.327	-0.00011
446.68	-0.00011
447.033	-0.00011
447.386	-0.00011
447.739	-0.00011
448.092	-0.00011
448.445	-0.00011
448.798	-0.00011
449.15	-0.00011
449.503	-0.00011
449.856	-0.00011
450.209	-0.00011
450.561	-0.00011
450.914	-0.00011
451.266	-0.00011
451.619	-0.00011
451.971	-0.00011
452.323	-0.00011
452.676	-0.00011
453.028	-0.00011
453.38	-0.00011
453.733	-0.00011
454.085	-0.00011
454.437	-0.00011
454.789	-0.00011
455.141	-0.00011
455.493	-0.00011
455.845	-0.00011
456.197	-0.00011
456.549	-0.00011
456.901	-0.00011
457.253	-0.00011
457.604	-0.00011
457.956	-0.00011
458.308	-0.00011
458.659	-0.00011
459.011	-0.00011
459.362	-0.00011
459.714	-0.00011
460.065	-0.00011
460.417	-0.00011
460.768	-0.00011
461.12	-0.00011
461.471	-0.00011
461.822	-0.00011
462.173	-0.00011
462.525	-0.00011
462.876	-0.00011
463.227	-0.00011
463.578	-0.00011
463.929	-0.00011
464.28	-0.00011
464.631	-0.00011
464.982	-0.00011
465.332	-0.00011
465.683	-0.00011
466.034	-0.00011
466.385	-0.00011
466.735	-0.00011
467.086	-0.00011
467.437	-0.00011
467.787	-0.00011
468.138	-0.00011
468.488	-0.00011
468.839	-0.00011
469.189	-0.00011
469.539	-0.00011
469.89	-0.00011
470.24	-0.00011
470.59	-0.00011
470.94	-0.00011
471.29	-0.00011
471.64	-0.00011
471.99	-0.00011
472.34	-0.00011
472.69	-0.00011
473.04	-0.00011
473.39	-0.00011
473.74	-0.00011
474.09	-0.00011
474.439	-0.00011
474.789	-0.00011
475.139	-0.00011
475.488	-0.00011
475.838	-0.00011
476.188	-0.00011
476.537	-0.00011
476.886	-0.00011
477.236	-0.00011
477.585	-0.00011
477.935	-0.00011
478.284	-0.00011
478.633	-0.00011
478.982	-0.00011
479.331	-0.00011
479.68	-0.00011
480.03	-0.00011
480.379	-0.00011
480.728	-0.00011
481.076	-0.00011
481.425	-0.00011
481.774	-0.00011
482.123	-0.00011
482.472	-0.00011
482.821	-0.00011
483.169	-0.00011
483.518	-0.00011
483.866	-0.00011
484.215	-0.00011
484.563	-0.00011
484.912	-0.00011
485.26	-0.00011
485.609	-0.00011
485.957	-0.00011
486.305	-0.00011
486.654	-0.00011
487.002	-0.00011
487.35	-0.00011
487.698	-0.00011
488.046	-0.00011
488.394	-0.00011
488.742	-0.00011
489.09	-0.00011
489.438	-0.00011
489.786	-0.00011
490.134	-0.00011
490.482	-0.00011
490.829	-0.00011
491.177	-0.00011
491.525	-0.00011
491.872	-0.00011
492.22	-0.00011
492.567	-0.00011
492.915	-0.00011
493.262	-0.00011
493.61	-0.00011
493.957	-0.00011
494.304	-0.00011
494.652	-0.00011
494.999	-0.00011
495.346	-0.00011
495.693	-0.00011
496.04	-0.00011
496.387	-0.00011
496.734	-0.00011
497.081	-0.00011
497.428	-0.00011
497.775	-0.00011
498.122	-0.00011
498.469	-0.00011
498.816	-0.00011
499.162	-0.00011
499.509	-0.00011
499.856	-0.00011
500.202	-0.00011
500.549	-0.00011
500.895	-0.00011
501.242	-0.00011
501.588	-0.00011
501.935	-0.00011
502.281	-0.00011
502.627	-0.00011
502.973	-0.00011
503.32	-0.00011
503.666	-0.00011
504.012	-0.00011
504.358	-0.00011
504.704	-0.00011
505.05	-0.00011
505.396	-0.00011
505.742	-0.00011
506.088	-0.00011
506.433	-0.00011
506.779	-0.00011
507.125	-0.00011
507.471	-0.00011
507.816	-0.00011
508.162	-0.00011
508.507	-0.00011
508.853	-0.00011
509.198	-0.00011
509.544	-0.00011
509.889	-0.00011
510.234	-0.00011
510.58	-0.00011
510.925	-0.00011
511.27	-0.00011
511.615	-0.00011
511.96	-0.00011
512.306	-0.00011
512.651	-0.00011
512.996	-0.00011
513.341	-0.00011
513.685	-0.00011
514.03	-0.00011
514.375	-0.00011
514.72	-0.00011
515.065	-0.00011
515.409	-0.00011
515.754	-0.00011
516.099	-0.00011
516.443	-0.00011
516.788	-0.00011
517.132	-0.00011
517.476	-0.00011
517.821	-0.00011
518.165	-0.00011
518.51	-0.00011
518.854	-0.00011
519.198	-0.00011
519.542	-0.00011
519.886	-0.00011
520.23	-0.00011
520.574	-0.00011
520.918	-0.00011
521.262	-0.00011
521.606	-0.00011
521.95	-0.00011
522.294	-0.00011
522.638	-0.00011
522.981	-0.00011
523.325	-0.00011
523.669	-0.00011
524.012	-0.00011
524.356	-0.00011
524.699	-0.00011
525.043	-0.00011
525.386	-0.00011
525.73	-0.00011
526.073	-0.00011
526.416	-0.00011
526.76	-0.00011
527.103	-0.00011
527.446	-0.00011
527.789	-0.00011
528.132	-0.00011
528.475	-0.00011
528.818	-0.00011
529.161	-0.00011
529.504	-0.00011
529.847	-0.00011
530.19	-0.00011
530.532	-0.00011
530.875	-0.00011
531.218	-0.00011
531.56	-0.00011
531.903	-0.00011
532.246	-0.00011
532.588	-0.00011
532.93	-0.00011
533.273	-0.00011
533.615	-0.00011
533.958	-0.00011
534.3	-0.00011
534.642	-0.00011
534.984	-0.00011
535.326	-0.00011
535.669	-0.00011
536.011	-0.00011
536.353	-0.00011
536.695	-0.00011
537.037	-0.00011
537.378	-0.00011
537.72	-0.00011
538.062	-0.00011
538.404	-0.00011
538.746	-0.00011
539.087	-0.00011
539.429	-0.00011
539.77	-0.00011
540.112	-0.00011
540.454	-0.00011
540.795	-0.00011
541.136	-0.00011
541.478	-0.00011
541.819	-0.00011
542.16	-0.00011
542.502	-0.00011
542.843	-0.00011
543.184	-0.00011
543.525	-0.00011
543.866	-0.00011
544.207	-0.00011
544.548	-0.00011
544.889	-0.00011
545.23	-0.00011
545.571	-0.00011
545.911	-0.00011
546.252	-0.00011
546.593	-0.00011
546.934	-0.00011
547.274	-0.00011
547.615	-0.00011
547.955	-0.00011
548.296	-0.00011
548.636	-0.00011
548.977	-0.00011
549.317	-0.00011
549.657	-0.00011
549.997	-0.00011
550.338	-0.00011
550.678	-0.00011
551.018	-0.00011
551.358	-0.00011
551.698	-0.00011
552.038	-0.00011
552.378	-0.00011
552.718	-0.00011
553.058	-0.00011
553.398	-0.00011
553.737	-0.00011
554.077	-0.00011
554.417	-0.00011
554.756	-0.00011
555.096	-0.00011
555.435	-0.00011
555.775	-0.00011
556.114	-0.00011
556.454	-0.00011
556.793	-0.00011
557.133	-0.00011
557.472	-0.00011
557.811	-0.00011
558.15	-0.00011
558.489	-0.00011
558.829	-0.00011
559.168	-0.00011
559.507	-0.00011
559.846	-0.00011
560.184	-0.00011
560.523	-0.00011
560.862	-0.00011
561.201	-0.00011
561.54	-0.00011
561.878	-0.00011
562.217	-0.00011
562.556	-0.00011
562.894	-0.00011
563.233	-0.00011
563.571	-0.00011
563.91	-0.00011
564.248	-0.00011
564.586	-0.00011
564.925	-0.00011
565.263	-0.00011
565.601	-0.00011
565.939	-0.00011
566.277	-0.00011
566.616	-0.00011
566.954	-0.00011
567.292	-0.00011
567.63	-0.00011
567.967	-0.00011
568.305	-0.00011
568.643	-0.00011
568.981	-0.00011
569.319	-0.00011
569.656	-0.00011
569.994	-0.00011
570.331	-0.00011
570.669	-0.00011
571.006	-0.00011
571.344	-0.00011
571.681	-0.00011
572.019	-0.00011
572.356	-0.00011
572.693	-0.00011
573.03	-0.00011
573.368	-0.00011
573.705	-0.00011
574.042	-0.00011
574.379	-0.00011
574.716	-0.00011
575.053	-0.00011
575.39	-0.00011
575.727	-0.00011
576.063	-0.00011
576.4	-0.00011
576.737	-0.00011
577.074	-0.00011
