Data from ambient_CB1e-6_0_Absorbance_14-21-35-038.txt Node
Date: Wed Aug 23 14:21:35 EDT 2023
User: UV-vis
Spectrometer: FLMS04918
Trigger mode: 0
Integration Time (sec): 1.000000E-3
Scans to average: 3
Electric dark correction enabled: true
Nonlinearity correction enabled: false
Boxcar width: 3
XAxis mode: Wavelengths
Number of Pixels in Spectrum: 2048
>>>>>Begin Spectral Data<<<<<
179.23	2.28631
179.611	0.97239
179.992	-0
180.373	1.19824
180.754	-0
181.134	0.00191
181.515	0.1863
181.896	0.14936
182.276	0.05078
182.657	-0.16534
183.038	-0.32487
183.418	-0.15002
183.799	-0.13357
184.179	-0.10624
184.56	-0
184.94	-0
185.32	-0.0192
185.701	-0.04747
186.081	0.17994
186.461	0.0728
186.842	0.09683
187.222	0.18482
187.602	0.15544
187.982	0.20149
188.362	0.25367
188.742	0.27047
189.122	0.27266
189.502	0.27378
189.882	0.33633
190.262	0.32957
190.642	0.34527
191.022	0.32841
191.402	0.2923
191.781	0.26552
192.161	0.24327
192.541	0.19439
192.92	0.21418
193.3	0.20568
193.68	0.22814
194.059	0.23825
194.439	0.29592
194.818	0.30791
195.198	0.28887
195.577	0.24684
195.957	0.25515
196.336	0.21265
196.715	0.22701
197.094	0.21327
197.474	0.18894
197.853	0.21155
198.232	0.21927
198.611	0.22979
198.99	0.25248
199.369	0.19649
199.748	0.19521
200.127	0.23867
200.506	0.24137
200.885	0.21701
201.264	0.2027
201.643	0.18486
202.022	0.18702
202.401	0.14293
202.779	0.12389
203.158	0.13911
203.537	0.16393
203.915	0.16304
204.294	0.1896
204.673	0.19603
205.051	0.24254
205.43	0.27016
205.808	0.25272
206.187	0.24065
206.565	0.19916
206.943	0.20769
207.322	0.17499
207.7	0.16297
208.078	0.14258
208.456	0.10852
208.835	0.16116
209.213	0.16906
209.591	0.17941
209.969	0.24876
210.347	0.27266
210.725	0.28993
211.103	0.26333
211.481	0.21997
211.859	0.22879
212.237	0.19612
212.614	0.17966
212.992	0.18285
213.37	0.17316
213.748	0.23299
214.125	0.22208
214.503	0.22576
214.881	0.2289
215.258	0.23832
215.636	0.2269
216.013	0.24271
216.391	0.24569
216.768	0.24572
217.145	0.27628
217.523	0.29672
217.9	0.29609
218.277	0.30651
218.655	0.27755
219.032	0.25069
219.409	0.2358
219.786	0.18635
220.163	0.18789
220.54	0.19811
220.917	0.20469
221.294	0.24491
221.671	0.24664
222.048	0.28006
222.425	0.28839
222.802	0.31346
223.179	0.25699
223.556	0.25358
223.932	0.23426
224.309	0.21163
224.686	0.20816
225.062	0.21548
225.439	0.15524
225.815	0.19565
226.192	0.21048
226.568	0.21134
226.945	0.20231
227.321	0.21621
227.698	0.25302
228.074	0.31489
228.45	0.26296
228.827	0.22543
229.203	0.24773
229.579	0.25917
229.955	0.24632
230.331	0.23528
230.707	0.22765
231.083	0.26606
231.46	0.27852
231.835	0.2373
232.211	0.26316
232.587	0.25866
232.963	0.24838
233.339	0.2571
233.715	0.25041
234.091	0.22034
234.466	0.24496
234.842	0.23901
235.218	0.21768
235.593	0.26973
235.969	0.2315
236.344	0.25105
236.72	0.28776
237.095	0.26502
237.471	0.24931
237.846	0.26916
238.222	0.23694
238.597	0.27341
238.972	0.24875
239.348	0.22529
239.723	0.25051
240.098	0.21695
240.473	0.20711
240.848	0.18027
241.223	0.18403
241.598	0.18102
241.973	0.1608
242.348	0.13113
242.723	0.21957
243.098	0.25025
243.473	0.27387
243.848	0.25071
244.223	0.22044
244.597	0.23197
244.972	0.24991
245.347	0.22808
245.721	0.20083
246.096	0.20842
246.47	0.22284
246.845	0.24231
247.219	0.26762
247.594	0.26758
247.968	0.26613
248.343	0.31679
248.717	0.29171
249.091	0.26497
249.466	0.28728
249.84	0.25491
250.214	0.24732
250.588	0.23869
250.962	0.22593
251.336	0.23729
251.71	0.22584
252.084	0.19002
252.458	0.20316
252.832	0.22393
253.206	0.22267
253.58	0.229
253.954	0.22589
254.328	0.22197
254.702	0.2258
255.075	0.2482
255.449	0.23637
255.823	0.23365
256.196	0.21634
256.57	0.21226
256.943	0.23428
257.317	0.2423
257.69	0.23462
258.064	0.23556
258.437	0.23675
258.81	0.17036
259.184	0.15374
259.557	0.15949
259.93	0.14336
260.303	0.14765
260.677	0.15391
261.05	0.17642
261.423	0.24041
261.796	0.26419
262.169	0.28196
262.542	0.30134
262.915	0.27386
263.288	0.25728
263.661	0.26614
264.033	0.26994
264.406	0.26052
264.779	0.22852
265.152	0.24221
265.524	0.26229
265.897	0.27726
266.27	0.27436
266.642	0.25438
267.015	0.27256
267.387	0.28827
267.76	0.29074
268.132	0.27896
268.504	0.24707
268.877	0.21753
269.249	0.23187
269.621	0.22178
269.994	0.219
270.366	0.18703
270.738	0.19193
271.11	0.22246
271.482	0.23728
271.854	0.24874
272.226	0.24236
272.598	0.23461
272.97	0.25063
273.342	0.2342
273.714	0.21503
274.086	0.20686
274.458	0.18681
274.829	0.19102
275.201	0.17818
275.573	0.17587
275.944	0.18467
276.316	0.18797
276.688	0.17296
277.059	0.19748
277.431	0.20875
277.802	0.21264
278.173	0.22871
278.545	0.26125
278.916	0.26775
279.287	0.30045
279.659	0.29754
280.03	0.28153
280.401	0.28932
280.772	0.26589
281.143	0.25414
281.515	0.25816
281.886	0.24283
282.257	0.24319
282.628	0.24739
282.998	0.2491
283.369	0.25218
283.74	0.24359
284.111	0.24317
284.482	0.24977
284.853	0.24628
285.223	0.24188
285.594	0.24507
285.965	0.24088
286.335	0.24495
286.706	0.242
287.076	0.24415
287.447	0.24458
287.817	0.24705
288.188	0.2472
288.558	0.2505
288.928	0.25008
289.299	0.25193
289.669	0.25361
290.039	0.2528
290.409	0.25317
290.779	0.25416
291.149	0.25415
291.52	0.25536
291.89	0.25542
292.26	0.25442
292.629	0.25492
292.999	0.2543
293.369	0.25461
293.739	0.25454
294.109	0.25433
294.479	0.25447
294.848	0.25343
295.218	0.25386
295.588	0.25336
295.957	0.25252
296.327	0.25331
296.696	0.25311
297.066	0.25429
297.435	0.25627
297.805	0.25735
298.174	0.25896
298.544	0.25878
298.913	0.25865
299.282	0.25944
299.651	0.25904
300.021	0.25716
300.39	0.25713
300.759	0.25615
301.128	0.25658
301.497	0.2569
301.866	0.25714
302.235	0.25715
302.604	0.2575
302.973	0.25703
303.342	0.25708
303.71	0.25652
304.079	0.25633
304.448	0.25593
304.817	0.25505
305.185	0.25432
305.554	0.2542
305.923	0.25372
306.291	0.25415
306.66	0.25313
307.028	0.25238
307.397	0.25257
307.765	0.25306
308.133	0.25406
308.502	0.25436
308.87	0.25421
309.238	0.25464
309.606	0.25463
309.975	0.25459
310.343	0.25494
310.711	0.25426
311.079	0.25386
311.447	0.25365
311.815	0.25381
312.183	0.2539
312.551	0.25424
312.919	0.25395
313.286	0.25307
313.654	0.25304
314.022	0.25289
314.39	0.25256
314.757	0.25247
315.125	0.25138
315.492	0.25155
315.86	0.25241
316.228	0.25238
316.595	0.25212
316.962	0.25081
317.33	0.24945
317.697	0.24839
318.065	0.24508
318.432	0.24253
318.799	0.24097
319.166	0.23887
319.534	0.23895
319.901	0.23979
320.268	0.24254
320.635	0.24626
321.002	0.24759
321.369	0.24947
321.736	0.25115
322.103	0.25145
322.47	0.25024
322.836	0.24872
323.203	0.24684
323.57	0.24657
323.937	0.2446
324.303	0.24389
324.67	0.24311
325.037	0.24314
325.403	0.24284
325.77	0.24313
326.136	0.24278
326.503	0.24358
326.869	0.24382
327.235	0.24484
327.602	0.24506
327.968	0.24491
328.334	0.24468
328.7	0.24467
329.067	0.24512
329.433	0.24616
329.799	0.24604
330.165	0.24566
330.531	0.24557
330.897	0.24544
331.263	0.24531
331.629	0.24446
331.995	0.24352
332.36	0.24298
332.726	0.24253
333.092	0.24234
333.458	0.24204
333.823	0.24148
334.189	0.24147
334.554	0.24044
334.92	0.24046
335.286	0.241
335.651	0.24015
336.016	0.23969
336.382	0.23909
336.747	0.23737
337.113	0.23706
337.478	0.23651
337.843	0.23612
338.208	0.23544
338.573	0.23546
338.939	0.2351
339.304	0.2362
339.669	0.23672
340.034	0.23661
340.399	0.23628
340.764	0.23662
341.129	0.23658
341.493	0.2369
341.858	0.23767
342.223	0.23757
342.588	0.23749
342.952	0.23804
343.317	0.23824
343.682	0.2377
344.046	0.23768
344.411	0.23663
344.775	0.23594
345.14	0.2357
345.504	0.23576
345.869	0.236
346.233	0.23566
346.597	0.23547
346.962	0.23606
347.326	0.23629
347.69	0.23632
348.054	0.23583
348.418	0.23471
348.782	0.23516
349.146	0.23525
349.51	0.23375
349.874	0.23345
350.238	0.23381
350.602	0.23317
350.966	0.23375
351.33	0.2336
351.693	0.23356
352.057	0.23478
352.421	0.23497
352.784	0.23435
353.148	0.23554
353.512	0.23592
353.875	0.2362
354.239	0.23651
354.602	0.23493
354.966	0.23535
355.329	0.23611
355.692	0.23544
356.056	0.23531
356.419	0.23551
356.782	0.2358
357.145	0.23759
357.508	0.23713
357.871	0.23634
358.234	0.23683
358.597	0.23602
358.96	0.23588
359.323	0.23494
359.686	0.23417
360.049	0.23314
360.412	0.23317
360.775	0.23245
361.137	0.23282
361.5	0.23274
361.863	0.2329
362.225	0.23316
362.588	0.23343
362.951	0.23303
363.313	0.23357
363.675	0.23393
364.038	0.23421
364.4	0.23355
364.763	0.23362
365.125	0.23436
365.487	0.23565
365.849	0.23475
366.212	0.23404
366.574	0.23357
366.936	0.23461
367.298	0.23369
367.66	0.23388
368.022	0.2325
368.384	0.23254
368.746	0.23294
369.108	0.23261
369.469	0.23189
369.831	0.23222
370.193	0.23151
370.555	0.23138
370.916	0.23116
371.278	0.23161
371.64	0.23172
372.001	0.23205
372.363	0.23119
372.724	0.23107
373.086	0.23051
373.447	0.2309
373.808	0.23035
374.17	0.23125
374.531	0.23071
374.892	0.23214
375.253	0.23248
375.615	0.23358
375.976	0.23287
376.337	0.23309
376.698	0.23246
377.059	0.23261
377.42	0.23186
377.781	0.23156
378.141	0.23095
378.502	0.23133
378.863	0.2314
379.224	0.23039
379.585	0.23116
379.945	0.23039
380.306	0.23063
380.666	0.23035
381.027	0.2301
381.388	0.22953
381.748	0.23064
382.108	0.2302
382.469	0.23084
382.829	0.23061
383.19	0.23129
383.55	0.23128
383.91	0.23163
384.27	0.2312
384.63	0.22954
384.991	0.23007
385.351	0.22956
385.711	0.22919
386.071	0.22954
386.431	0.22964
386.791	0.23029
387.15	0.23146
387.51	0.23233
387.87	0.23334
388.23	0.23315
388.589	0.23338
388.949	0.23336
389.309	0.23176
389.668	0.23233
390.028	0.23113
390.387	0.23028
390.747	0.231
391.106	0.23051
391.466	0.23148
391.825	0.2316
392.184	0.23187
392.544	0.23158
392.903	0.23171
393.262	0.23005
393.621	0.23015
393.98	0.22853
394.339	0.22856
394.698	0.22806
395.057	0.22843
395.416	0.22878
395.775	0.22929
396.134	0.22979
396.493	0.2308
396.852	0.23194
397.211	0.23223
397.569	0.23254
397.928	0.23158
398.287	0.23196
398.645	0.23048
399.004	0.22942
399.362	0.22804
399.721	0.22744
400.079	0.22623
400.438	0.22697
400.796	0.22682
401.154	0.22774
401.512	0.22809
401.871	0.22859
402.229	0.22756
402.587	0.22867
402.945	0.22739
403.303	0.22764
403.661	0.22721
404.019	0.22825
404.377	0.22859
404.735	0.22916
405.093	0.22907
405.451	0.23073
405.808	0.23086
406.166	0.23104
406.524	0.23066
406.882	0.22969
407.239	0.22943
407.597	0.2294
407.954	0.2298
408.312	0.23001
408.669	0.22996
409.027	0.23022
409.384	0.23119
409.741	0.23168
410.099	0.2307
410.456	0.22893
410.813	0.22926
411.17	0.22958
411.527	0.22794
411.884	0.22698
412.242	0.22624
412.599	0.22747
412.956	0.22907
413.312	0.22795
413.669	0.22772
414.026	0.22768
414.383	0.22764
414.74	0.22796
415.096	0.22693
415.453	0.22645
415.81	0.22698
416.166	0.22772
416.523	0.22803
416.879	0.22851
417.236	0.22792
417.592	0.2276
417.949	0.22737
418.305	0.22753
418.661	0.22673
419.018	0.22729
419.374	0.22758
419.73	0.22822
420.086	0.22875
420.442	0.229
420.798	0.22822
421.154	0.2279
421.51	0.22783
421.866	0.22659
422.222	0.22674
422.578	0.22573
422.934	0.22365
423.29	0.22237
423.646	0.22114
424.001	0.21989
424.357	0.22007
424.713	0.21743
425.068	0.21471
425.424	0.21368
425.779	0.21331
426.135	0.21246
426.49	0.21172
426.845	0.21154
427.201	0.21222
427.556	0.21453
427.911	0.21566
428.266	0.21547
428.622	0.21707
428.977	0.21648
429.332	0.21594
429.687	0.21478
430.042	0.21519
430.397	0.21522
430.752	0.21579
431.107	0.2142
431.461	0.21392
431.816	0.21496
432.171	0.21756
432.526	0.21688
432.88	0.21617
433.235	0.2168
433.59	0.21762
433.944	0.21785
434.299	0.21713
434.653	0.21418
435.008	0.21365
435.362	0.21553
435.716	0.21506
436.071	0.21372
436.425	0.21388
436.779	0.21146
437.133	0.21157
437.487	0.2113
437.841	0.20861
438.195	0.20887
438.549	0.20752
438.903	0.20472
439.257	0.20459
439.611	0.20478
439.965	0.20476
440.319	0.20382
440.673	0.2027
441.026	0.20411
441.38	0.20484
441.734	0.20632
442.087	0.20753
442.441	0.20864
442.794	0.20958
443.148	0.20737
443.501	0.20697
443.855	0.20758
444.208	0.20714
444.561	0.20401
444.915	0.20313
445.268	0.20338
445.621	0.20633
445.974	0.20514
446.327	0.20594
446.68	0.20706
447.033	0.21037
447.386	0.20899
447.739	0.20921
448.092	0.20903
448.445	0.2098
448.798	0.2097
449.15	0.20987
449.503	0.20971
449.856	0.21163
450.209	0.2128
450.561	0.21322
450.914	0.21424
451.266	0.21478
451.619	0.2139
451.971	0.21203
452.323	0.21204
452.676	0.21128
453.028	0.21081
453.38	0.21164
453.733	0.21213
454.085	0.21129
454.437	0.21083
454.789	0.20995
455.141	0.20897
455.493	0.20909
455.845	0.20977
456.197	0.20874
456.549	0.20878
456.901	0.21128
457.253	0.21161
457.604	0.21306
457.956	0.21311
458.308	0.21093
458.659	0.21095
459.011	0.21145
459.362	0.21054
459.714	0.21063
460.065	0.20989
460.417	0.2076
460.768	0.20847
461.12	0.20909
461.471	0.20855
461.822	0.20801
462.173	0.20792
462.525	0.20816
462.876	0.21082
463.227	0.20941
463.578	0.20696
463.929	0.20603
464.28	0.2048
464.631	0.20262
464.982	0.20211
465.332	0.20231
465.683	0.20477
466.034	0.20704
466.385	0.20805
466.735	0.20884
467.086	0.21172
467.437	0.21125
467.787	0.21102
468.138	0.21013
468.488	0.20848
468.839	0.20838
469.189	0.21111
469.539	0.2104
469.89	0.21106
470.24	0.21011
470.59	0.21118
470.94	0.2113
471.29	0.21193
471.64	0.21159
471.99	0.21122
472.34	0.21204
472.69	0.21155
473.04	0.21163
473.39	0.21342
473.74	0.21493
474.09	0.2136
474.439	0.21343
474.789	0.21308
475.139	0.21267
475.488	0.21285
475.838	0.21247
476.188	0.21152
476.537	0.21046
476.886	0.21147
477.236	0.21147
477.585	0.21273
477.935	0.20988
478.284	0.20897
478.633	0.20931
478.982	0.21105
479.331	0.21019
479.68	0.21056
480.03	0.20988
480.379	0.21228
480.728	0.21358
481.076	0.21395
481.425	0.21308
481.774	0.21428
482.123	0.21391
482.472	0.21498
482.821	0.21301
483.169	0.21474
483.518	0.21402
483.866	0.21419
484.215	0.21445
484.563	0.21465
484.912	0.21483
485.26	0.21609
485.609	0.21425
485.957	0.21409
486.305	0.21382
486.654	0.21315
487.002	0.21336
487.35	0.21346
487.698	0.21261
488.046	0.21117
488.394	0.21125
488.742	0.21267
489.09	0.21215
489.438	0.21176
489.786	0.21089
490.134	0.21185
490.482	0.21358
490.829	0.21384
491.177	0.21429
491.525	0.21452
491.872	0.21439
492.22	0.21551
492.567	0.21507
492.915	0.21593
493.262	0.21694
493.61	0.21729
493.957	0.21746
494.304	0.21621
494.652	0.21644
494.999	0.21617
495.346	0.21673
495.693	0.21567
496.04	0.21452
496.387	0.21622
496.734	0.21666
497.081	0.21514
497.428	0.21642
497.775	0.21518
498.122	0.2158
498.469	0.21511
498.816	0.21305
499.162	0.21529
499.509	0.21655
499.856	0.21725
500.202	0.21587
500.549	0.2148
500.895	0.21531
501.242	0.21615
501.588	0.21545
501.935	0.21378
502.281	0.21387
502.627	0.21485
502.973	0.21686
503.32	0.2167
503.666	0.21778
504.012	0.21746
504.358	0.2183
504.704	0.21714
505.05	0.2181
505.396	0.21781
505.742	0.21888
506.088	0.21884
506.433	0.21783
506.779	0.21825
507.125	0.21898
507.471	0.21927
507.816	0.21832
508.162	0.21788
508.507	0.21627
508.853	0.21685
509.198	0.21773
509.544	0.21751
509.889	0.21666
510.234	0.21576
510.58	0.21616
510.925	0.21656
511.27	0.21862
511.615	0.2188
511.96	0.21857
512.306	0.21882
512.651	0.22029
512.996	0.21978
513.341	0.22142
513.685	0.22014
514.03	0.22025
514.375	0.22099
514.72	0.21906
515.065	0.21967
515.409	0.22096
515.754	0.21942
516.099	0.22064
516.443	0.22076
516.788	0.22071
517.132	0.22324
517.476	0.22342
517.821	0.22222
518.165	0.22431
518.51	0.22406
518.854	0.22419
519.198	0.22457
519.542	0.22483
519.886	0.22459
520.23	0.22658
520.574	0.22662
520.918	0.22599
521.262	0.22535
521.606	0.22528
521.95	0.22474
522.294	0.22476
522.638	0.22361
522.981	0.22164
523.325	0.22251
523.669	0.22241
524.012	0.22237
524.356	0.2229
524.699	0.22267
525.043	0.22247
525.386	0.22381
525.73	0.22355
526.073	0.22474
526.416	0.22478
526.76	0.22459
527.103	0.22551
527.446	0.22537
527.789	0.2241
528.132	0.22418
528.475	0.22315
528.818	0.22394
529.161	0.22349
529.504	0.22277
529.847	0.22244
530.19	0.22333
530.532	0.22271
530.875	0.22277
531.218	0.22123
531.56	0.22116
531.903	0.22083
532.246	0.22166
532.588	0.22211
532.93	0.22308
533.273	0.2238
533.615	0.22549
533.958	0.22536
534.3	0.22481
534.642	0.22492
534.984	0.22412
535.326	0.22432
535.669	0.22333
536.011	0.22354
536.353	0.22303
536.695	0.22346
537.037	0.22254
537.378	0.22329
537.72	0.22293
538.062	0.22401
538.404	0.22239
538.746	0.22343
539.087	0.22361
539.429	0.22382
539.77	0.22222
540.112	0.22225
540.454	0.22178
540.795	0.22099
541.136	0.22103
541.478	0.22161
541.819	0.22212
542.16	0.22319
542.502	0.22266
542.843	0.22317
543.184	0.22402
543.525	0.22476
543.866	0.22568
544.207	0.22525
544.548	0.22496
544.889	0.22552
545.23	0.22475
545.571	0.22464
545.911	0.2233
546.252	0.2215
546.593	0.22089
546.934	0.22124
547.274	0.22048
547.615	0.21938
547.955	0.22056
548.296	0.22074
548.636	0.22241
548.977	0.22383
549.317	0.22489
549.657	0.22451
549.997	0.22531
550.338	0.2244
550.678	0.22437
551.018	0.22313
551.358	0.22327
551.698	0.22294
552.038	0.22413
552.378	0.22422
552.718	0.22427
553.058	0.22587
553.398	0.22657
553.737	0.2265
554.077	0.22677
554.417	0.2263
554.756	0.22627
555.096	0.226
555.435	0.22472
555.775	0.22397
556.114	0.22332
556.454	0.22397
556.793	0.22444
557.133	0.22601
557.472	0.22599
557.811	0.22781
558.15	0.22847
558.489	0.22894
558.829	0.22851
559.168	0.22806
559.507	0.22826
559.846	0.22964
560.184	0.229
560.523	0.22929
560.862	0.23015
561.201	0.22975
561.54	0.22946
561.878	0.22969
562.217	0.22838
562.556	0.22796
562.894	0.22732
563.233	0.22722
563.571	0.22731
563.91	0.22747
564.248	0.22681
564.586	0.22744
564.925	0.22722
565.263	0.2278
565.601	0.2278
565.939	0.22696
566.277	0.22743
566.616	0.22787
566.954	0.22812
567.292	0.22964
567.63	0.23098
567.967	0.23143
568.305	0.2319
568.643	0.23199
568.981	0.23091
569.319	0.23131
569.656	0.23019
569.994	0.22901
570.331	0.2283
570.669	0.22952
571.006	0.22967
571.344	0.22952
571.681	0.23056
572.019	0.23207
572.356	0.23123
572.693	0.23199
573.03	0.23178
573.368	0.2313
573.705	0.23169
574.042	0.23053
574.379	0.22884
574.716	0.22952
575.053	0.22835
575.39	0.22801
575.727	0.22919
576.063	0.2282
576.4	0.2292
576.737	0.22948
577.074	0.22945
577.41	0.22981
577.747	0.23128
578.083	0.23038
578.42	0.23176
578.756	0.2315
579.093	0.2311
579.429	0.23209
579.766	0.23261
580.102	0.23134
580.438	0.23164
580.774	0.2326
581.11	0.23218
581.446	0.23333
581.782	0.23249
582.119	0.23276
582.454	0.23254
582.79	0.23372
583.126	0.23274
583.462	0.23187
583.798	0.23106
584.134	0.23062
584.469	0.22889
584.805	0.22823
585.141	0.22745
585.476	0.22858
585.812	0.22944
586.147	0.23068
586.482	0.23239
586.818	0.2336
587.153	0.23542
587.488	0.23498
587.824	0.23453
588.159	0.23397
588.494	0.23373
588.829	0.23358
589.164	0.23284
589.499	0.232
589.834	0.23185
590.169	0.23064
590.504	0.23142
590.839	0.23069
591.174	0.22933
591.508	0.23073
591.843	0.23083
592.178	0.23228
592.512	0.23341
592.847	0.23255
593.181	0.23228
593.516	0.23277
593.85	0.23209
594.185	0.23287
594.519	0.23236
594.853	0.23315
595.187	0.23376
595.522	0.23397
595.856	0.2342
596.19	0.23415
596.524	0.23314
596.858	0.23314
597.192	0.23305
597.526	0.23339
597.86	0.23292
